label,COUNTER,INTERPOLATED,AF3,F7,F3,FC5,T7,P7,O1,O2,P8,T8,FC6,F4,F8,AF4,RAW_CQ,GYROX,GYROY,MARKER,SYNC,TIME_STAMP_s,TIME_STAMP_ms,CQ_AF3,CQ_F7,CQ_F3,CQ_FC5,CQ_T7,CQ_P7,CQ_O1,CQ_O2,CQ_P8,CQ_T8,CQ_FC6,CQ_F4,CQ_F8,CQ_AF4,CQ_CMS,CQ_DRL
off_to_on,-0.753971042143,2.51022149712,1.14205957604,-2.1291821075,-0.737770993366,-0.16909411053,-11.6179408006,-1.90782605067,-0.196908545567,-4.85736436228,0.211833346088,-4.60879553286,-2.11620349583,159.600205723
off_to_on,2.95419148235,4.68584019691,3.92305148188,-2.60822841361,-4.55640079431,-1.67383578991,-7.19956280387,0.296495705429,0.0626330414765,-0.0797679919376,1.35659001341,-0.264409625075,0.80720884731,121.411054035
off_to_on,3.11020096989,2.09540512437,2.29644404124,-0.813391978048,-5.44428808007,-3.2361577817,2.93661151939,3.6162959905,0.13070190192,4.94066326995,1.29651140867,4.44207725692,2.74458559398,-43.4886194307
off_to_on,-0.356377463184,-3.14875664642,-2.68073216297,0.931669604226,-2.62825147787,-4.36255394025,6.76991057303,3.18655015207,-0.0685591019873,2.88621346961,-0.234358132749,3.65255579667,0.0233983620344,-198.410706959
off_to_on,-2.52989054745,-5.42507302905,-5.11157050892,1.22495084751,1.9508172311,-2.48560485469,3.17885685913,-1.22262533776,-0.209226965181,-3.3541459854,-1.55820128153,-1.27184895389,-3.77775347319,-174.226693962
off_to_on,-1.6226722534,-3.20561864687,-3.03328911294,0.762503978553,4.4092154301,2.20135437499,-1.18436221823,-4.56252348065,-0.0409279387118,-5.66525360426,-1.46104136095,-4.60879891518,-3.6135918603,15.9971114983
off_to_on,-0.833561932202,-0.0404227141345,-0.262752114013,0.496397342472,2.67526270992,5.10729024787,-2.98040728401,-3.4911314954,0.243084299678,-2.12651346455,-0.503312376221,-3.48139194557,-0.120172723868,165.723627214
off_to_on,-1.49981181603,1.41817962222,0.663117716194,0.210250540668,-0.659924531759,2.99101850332,-3.10789189335,0.0515737198438,0.270974548732,2.06717230555,0.380317338348,0.143231062614,2.39517614663,131.887253451
off_to_on,-0.250183840041,2.44158470644,1.96120072995,-0.486637397161,-1.33662929981,-1.00380521881,-1.01370866878,2.94288673199,0.00826232288834,3.36995144093,1.08902981657,3.15215104217,2.5479973733,8.17381100842
off_to_on,4.12814015732,4.23065831118,4.95356101828,-0.94650354781,0.773115793406,-1.53009353802,4.04437805357,4.54357023125,-0.198156288859,3.45733403979,1.48725055256,4.23275961674,2.33983389089,-41.0450179608
off_to_on,6.04236840929,4.30541174796,5.66642761565,-0.387412954447,1.53766388051,0.975072406718,7.5795374183,4.56513195243,-0.101267921379,3.49620692773,0.792420897371,3.17770819609,2.12171079271,-22.4329153959
off_to_on,0.547199166467,-0.0963034030711,0.315633590851,0.553506205022,-1.11556173234,0.911529432188,3.30932969813,1.17648984428,0.10897293365,0.916613622008,-0.9621501119,-0.106522308951,-0.258956754647,-51.4105767751
off_to_on,-7.3905349864,-6.33052434912,-7.23163301872,0.442504742849,-3.83808639887,-3.31074881948,-6.83841787329,-5.35203539845,0.0794099526703,-4.91149755889,-1.97451465901,-4.3378785119,-4.40379255198,-110.579980101
off_to_on,-7.59406794311,-7.6755503901,-8.51550773684,-0.746677134671,-2.73676390433,-5.61070491353,-12.2556325266,-9.59841486308,-0.193554442777,-8.39235861643,-0.769438003726,-6.13184350856,-5.69189172093,-58.094813434
off_to_on,1.25674757687,-1.55560962639,-1.34820673919,-1.25016274648,0.995199471398,-0.948173146011,-6.01314952928,-5.93553896206,-0.326071364932,-4.16648591161,1.36713198263,-2.97651801774,-1.38333137081,107.886475347
off_to_on,8.51913407527,6.00209549816,6.44537784446,0.0896407290974,3.15998577327,6.02959956136,6.29261821444,3.7347433056,-0.0642459370602,4.29578257671,1.75215327872,2.95323484324,4.38149136621,183.657787786
off_to_on,5.24915820738,6.74450009205,6.26907658211,1.94260388495,2.48072613269,6.3640136805,12.9183425731,10.6914932923,0.339777869579,7.90822955996,-0.0604755955971,6.0522328639,5.2065678541,49.5112136658
off_to_on,-3.96444360678,0.269696883539,-0.755638247999,1.99995769468,1.10992171242,-0.533807590887,8.47680802307,8.64096850741,0.42935002675,3.58725893317,-1.71656210735,3.45034794871,0.776513369769,-129.330356469
off_to_on,-7.43109211009,-5.26704700332,-5.52273052954,-0.00915290323786,0.209324359988,-5.63961602727,-2.24931518964,0.0271104947699,0.128756243423,-2.25833519158,-1.3535745554,-1.48649577088,-3.01250277955,-129.997965128
off_to_on,-1.6647443156,-3.30114137253,-2.35908771674,-1.91574936916,-1.18927810895,-2.90346336962,-10.2589981852,-7.37845426328,-0.190122835429,-2.95837697963,0.221888317267,-3.23703853729,-2.0352657876,10.2586064459
off_to_on,5.41286845929,3.13521820239,4.46559517304,-1.85408935472,-2.78921699776,2.75027647286,-9.44780579259,-8.07993695319,-0.230491805052,0.267257588134,1.26020546346,-0.676128178372,1.4654682974,75.5172558536
off_to_on,5.92687580381,5.8091797541,6.60802619035,-0.392843068459,-2.31377567564,3.46241940817,-0.472600544068,-2.60663540687,-0.117248608998,1.86526979398,1.36258360425,2.21154710212,2.98554331027,7.80185337704
off_to_on,0.903431097452,1.63284534284,1.55833763705,0.629393190152,0.492923361677,-0.385067418072,8.85447738514,3.90285700638,-0.101919319526,-0.116164852033,0.975549115224,1.59252030543,1.16096399179,-37.1794656612
off_to_on,-3.87476897194,-4.6768644255,-5.49330033765,0.588562043268,2.37376278701,-2.55238450013,8.91026931002,5.72924088352,-0.141534803017,-3.19831019785,-0.0124956691496,-2.16652949446,-2.43004221209,25.8730950778
off_to_on,-5.61060079755,-7.29101816983,-8.28484267502,0.406518292454,1.11294492716,-1.38558753434,-1.61059177371,1.33297727907,-0.0175211784818,-4.8837337176,-1.59355140507,-5.5143432597,-5.69567577383,74.6375998
off_to_on,-4.53580296371,-4.72746334213,-5.15347790259,0.716374314164,-0.979115061995,-0.804244999185,-11.5760790107,-4.35932208238,0.236733623969,-3.82600843994,-2.43545466807,-4.84927647148,-5.89641006258,2.36342581021
off_to_on,-0.314456290597,1.35470873551,1.48023340351,0.873986283285,-0.611825488308,-1.55626792175,-8.31036531532,-4.26136972763,0.327754339966,1.33629369227,-1.18140604329,1.05010311161,-0.271219309429,-91.4857636862
off_to_on,6.17990314585,8.12706457406,7.78391453056,0.156418016992,1.44963176258,0.616990251336,6.39262570678,2.45193365984,0.140451815154,9.18035412507,1.27172149248,9.00041337525,9.13253012763,-63.2000939263
off_to_on,9.45862825755,10.7524811366,9.57247096223,-0.933184181027,1.80524448742,5.7986000149,16.0123894645,8.0120346736,-0.0897430077982,12.4448510894,2.46280637268,11.6655045415,13.3994840869,40.7700368629
off_to_on,4.17584614571,4.66354781834,4.32274242097,-1.29282099526,-0.33635238537,6.44965226491,8.26436934936,4.77852972253,-0.143691419161,4.27491212315,1.46993435179,3.7949652754,5.30430811908,66.246158275
off_to_on,-5.99303486778,-7.25934735609,-4.84541242969,-0.720618300272,-2.36561469348,-1.44478542628,-9.18951142211,-4.81724769213,-0.11411734741,-10.6383349321,-0.154265292629,-9.66861812847,-9.62605414389,-0.453152322739
off_to_on,-10.1918091168,-13.7476567884,-9.70495612112,-0.00346926412427,-2.27121029431,-9.51470758007,-16.9564910432,-10.374489852,-0.163788641963,-17.3797725499,-0.824111612554,-15.5956559633,-16.4311261264,-31.9102659534
off_to_on,-3.91869360654,-7.25534238014,-5.51787253672,0.349733642675,-0.635222098487,-7.01035190031,-6.89575369128,-5.79611910843,-0.195118152893,-7.8779466815,-0.767449559924,-7.02540459541,-7.96658957577,14.875506755
off_to_on,4.30109097082,5.05993307425,2.16573483932,0.63857548762,1.28018446597,3.29003440761,8.51863402543,3.72840295116,-0.0183644876841,7.70048947515,-0.815381691894,6.97388757237,5.8664091635,38.1960889877
off_to_on,4.2966460182,9.17374189563,3.93897321348,1.05280852409,2.71531361785,8.002831715,11.9144873536,8.44318705904,0.262041043932,12.7014478187,-0.814453700025,11.2811494857,10.5093504245,-17.8287546519
off_to_on,-1.62315666409,2.56875716419,-0.592506950784,1.01239449123,2.48749634461,1.97819200249,1.87182225189,5.14286893921,0.323207084937,4.63023543712,-0.295491497707,3.57041073046,4.61385235757,-63.5964000763
off_to_on,-2.54598330639,-3.00078312409,-2.21413561477,0.0285039708225,-0.233464994476,-4.85720157232,-6.93632812074,-0.912212312097,0.087263436793,-3.32927570076,0.385403642485,-3.55043495022,-0.781464312155,-20.9943091954
off_to_on,4.41357312461,0.755074850787,3.81475000246,-1.22524802172,-3.44038797693,-2.74180158864,-3.52745437567,-3.697190975,-0.154348756173,-1.47753454973,0.736624402499,-0.700442740925,0.791710457586,43.3621642263
off_to_on,9.16855368512,6.43157738659,9.40355508582,-1.4941074463,-3.40164471551,4.00689311273,5.61978152891,-2.70301954449,-0.152000839063,3.99549304526,1.04803122964,5.40267929857,3.1893473681,34.5125444406
off_to_on,2.9191262889,2.60401789403,4.5867717557,-0.556782858681,0.326750973363,4.79446913844,6.40890552664,-1.02499750917,-0.00974604724525,1.93447143378,1.40844306614,2.69851313425,-1.06471471337,-14.4335070956
off_to_on,-8.887405051,-8.23091275496,-7.38854255013,0.468327600127,3.51848028084,-1.16310234746,-3.12704335294,-0.128871794886,0.0333581824679,-6.86116170261,0.782181888813,-7.82515209592,-8.49532434707,-11.7573950932
off_to_on,-13.1488889589,-12.4185111194,-13.1991738744,0.647343477332,2.72524469414,-5.06733498585,-10.1821058183,0.923653974499,-0.0505391356593,-11.0176760267,-1.29724337394,-12.8664903077,-9.52051789071,30.2512849168
off_to_on,-5.49012871983,-4.13629541973,-6.69429056493,0.37814309466,-0.238924275784,-2.66969887928,-5.21352739185,2.01291957211,-0.112101580605,-4.59784257718,-2.89114955596,-5.06087781118,-1.97465050852,23.2142224787
off_to_on,5.6287697989,7.29447748409,4.12833347027,0.495928863246,-1.60116306477,0.68751116257,4.83299654689,1.00125884682,-0.0766249995654,5.73907412663,-1.69446517034,7.53101935591,6.64912349668,-36.4167023194
off_to_on,10.3088144232,10.6614778611,8.76881044846,0.783877857301,-1.19993511404,0.278321639513,6.99239616174,-2.31712010512,0.0132447034758,10.480724365,1.2552143723,12.5848152663,9.48766856322,-56.8839696576
off_to_on,7.32142142774,5.88946176496,6.32995028415,0.285369652561,-1.43363879754,-0.68753833149,0.921746659978,-3.76587206798,0.123979406029,7.93792141978,2.35879166125,7.85864991077,6.87359154887,-5.01707731699
off_to_on,1.79371587316,0.139817033474,2.50494908122,-0.981347437863,-2.07240093794,2.10659095429,-2.02571528757,0.345143929626,0.224365943727,2.42544706996,0.513885636055,0.205895374171,2.06554912477,41.9007584517
off_to_on,-2.47403950882,-3.07736777998,-0.147307338557,-1.63231410961,-0.340669741881,5.69174371538,2.52721954512,6.47346443227,0.204871077589,-3.09077932859,-1.14137004435,-5.00043621155,-3.64807344497,26.2311747997
off_to_on,-5.18936260275,-5.22038034652,-3.22236674686,-0.712588714198,3.58383231974,3.88706863206,4.91278550258,6.27406222644,-0.00821046511143,-7.76291949267,0.00854274411109,-7.53036546696,-8.78524150838,-7.1901675831
off_to_on,-6.45921973875,-6.47701289431,-6.33889317729,0.853320322671,5.21445247397,-2.99777597571,-2.44621587139,-2.27635441651,-0.26597440923,-9.19420254342,1.90211018165,-7.53707520011,-9.31260972711,-4.32061086302
off_to_on,-5.14251225606,-4.43344353974,-6.03543997218,1.37163323482,1.71233778994,-7.90418474278,-11.0133190336,-10.0032215443,-0.308483273613,-4.76206039156,0.948763104693,-3.63729221145,-3.06579504575,9.06474629866
off_to_on,-0.654584486185,1.16160547217,-1.19243879399,0.539357375306,-3.67785173905,-5.89349511499,-7.50249086681,-7.0225627361,-0.0989702075268,3.29318689529,-2.17728441913,3.13775561827,5.54626513349,-5.34620420316
off_to_on,5.12151044741,6.55718818671,4.54624642799,-0.389053805037,-5.51562516019,0.696624076688,5.62264735904,3.90668817463,0.116379946284,8.53424952122,-3.19915676397,8.03937390464,9.38932182031,-16.0086390759
off_to_on,8.33874777892,7.73440725724,6.8409259241,-0.473853882917,-2.69751815756,5.96554235442,12.1723970714,9.9583275772,0.14171771614,7.372216002,-0.54205612015,7.48876217883,6.40609009902,12.6353151868
off_to_on,5.94593725727,3.85476783458,4.65748522912,-0.139838663972,1.20952838119,6.21616385834,4.5995567984,4.43898935879,0.0674150554931,2.43168725684,2.34238318097,2.77087051497,0.500200276902,28.9386436593
off_to_on,-0.985366044941,-2.60100898366,-0.0732693046209,-0.1007375713,2.94964917471,1.94587706862,-6.22472131578,-5.06482494549,0.0737874973038,-2.03821287692,2.0645167437,-2.48511447097,-4.18527169456,-29.7857152438
off_to_on,-6.79021326275,-7.08213823827,-4.27719312595,-0.186974415391,2.46336209795,-3.11890682294,-7.10917456185,-7.15494723773,0.13703485775,-4.73413230512,-0.0957048685649,-5.94737711043,-6.16436723576,-98.7635583718
off_to_on,-6.17421521607,-5.6404659759,-5.06235279005,0.0818459593934,1.26661192447,-4.65738541021,0.39785779713,-0.668010394183,0.0861060045996,-5.65094443333,-0.752098138669,-6.38575750567,-4.70157883691,-43.325976492
off_to_on,-0.520133414223,0.634823323555,-1.98334329462,0.426165635206,0.249248724121,-1.74323443279,5.20288983271,5.77648992546,-0.111154084322,-3.59478256914,0.393460389042,-2.97779357692,0.105524567343,124.883838595
off_to_on,3.12063553903,4.96430770631,1.55526608005,0.215547852771,-0.508793801438,1.69198647535,2.63898823255,5.32725518482,-0.27428979949,1.24383645747,0.709258317338,2.57199129175,4.62345833949,203.087106637
off_to_on,1.0063096697,2.36951753956,1.80754431019,-0.363007652589,-1.16387043167,1.54584755572,-2.35394959701,-0.630437141439,-0.228980206845,4.79743065739,-0.78416175779,5.62353779207,3.97271761944,45.7407051351
off_to_on,-2.08572437336,-3.02328030462,-0.111304344993,-0.480947036104,-1.80081118864,-0.84378185182,-4.55549335869,-6.17424537183,-0.000152517697197,3.48665022491,-1.89711298774,3.56537054451,-0.88363159106,-209.371931539
off_to_on,0.0819097664381,-2.8987334012,0.205587041983,0.0254287846196,-1.99726225356,-0.908010000578,-3.34914438071,-6.6255883551,0.22512349395,-0.191748857925,-0.831177898833,-0.355057865442,-2.92017943396,-269.352737035
off_to_on,5.24346718505,3.07318488435,3.08695785808,0.416067027772,-0.916784964698,1.68464280057,0.354667103509,-1.16269854819,0.263981725238,-0.94282492859,1.05997513959,-1.44922255887,0.922625557087,-40.2568771981
off_to_on,5.13010668841,6.01512073825,3.3501596019,0.264479585466,1.3019768335,2.28345308594,5.03497204129,6.22883366558,0.0806566519453,1.04921949707,1.36579845646,-0.328076654212,4.12822878545,237.845470469
off_to_on,-2.03625813351,0.88144593056,-1.47749507889,0.0389257225731,2.80250290703,-0.836992922466,6.53041022295,8.56517848958,-0.164235380885,0.514172203272,0.0577501943733,-0.977481102639,0.163078959456,261.67071228
off_to_on,-7.65645418764,-5.58255511506,-5.90640984429,0.11443812913,2.0012912406,-2.88320093205,1.72966991455,2.7828331705,-0.22469622803,-3.40925106644,-0.715310613974,-3.01492585402,-6.18665437687,20.292421011
off_to_on,-4.39517676678,-4.72849605822,-3.7764748637,0.0570956079007,-0.0699868912895,-0.170170217816,-4.99462516583,-5.07985390985,-0.0196715598573,-4.37532197391,0.245398597635,-1.67353566596,-4.70892919254,-200.841107882
off_to_on,3.21851613733,1.15805798216,2.29688151503,-0.477309814272,-1.02757665437,3.1010923786,-5.62907047,-6.27076489566,0.229985735401,0.945865425589,1.58487650537,3.22414819615,4.11576657095,-171.92855887
off_to_on,5.09571838005,2.93868221996,4.35828170559,-0.838393776501,-0.528795119605,0.994926579978,-0.284157259161,-1.20359468301,0.215769428652,5.66186829423,1.12824686736,4.62455916592,7.95774125825,16.9731150642
off_to_on,-0.209792692509,-1.01487088618,0.687916417097,-0.257834396105,-0.446068411319,-4.05594571747,2.09408537371,1.19768140397,-0.0845102991892,2.13440134666,-1.36016300873,-1.18384553553,0.452270717802,109.442361966
off_to_on,-4.04901140656,-2.77836704958,-2.21234113192,0.785551730449,-1.4660741661,-3.99280517172,-2.07257446281,-2.1112118169,-0.348140013983,-5.05515826558,-3.46561714415,-6.58803585767,-8.18334326759,31.229813141
off_to_on,-0.585363344498,2.05252067806,0.0357991957947,1.05346143971,-1.78189487538,2.41999015223,-4.00644248189,-2.49171380504,-0.275924910144,-4.33504172287,-2.40798345395,-2.25916225927,-5.08972671225,-46.17981527
off_to_on,5.04614030859,6.93702998668,3.28446505516,0.276911406826,-0.135831715617,6.81558131347,3.58545455102,5.82920211094,0.0651925081742,4.92010990708,1.59507088421,7.75602318815,6.1621685233,7.16041934588
off_to_on,4.48959217892,3.89474973548,1.73734445573,-0.539307065092,1.90062950535,3.04646499027,12.2257181837,12.6743570829,0.340679630612,9.26380071567,4.64230563126,9.24029196732,9.74112000644,85.0877198328
off_to_on,-2.15946561748,-4.77565429618,-3.23717061581,-0.607444692327,2.23165814318,-4.12465162305,7.56421370928,4.35077501151,0.324322824601,0.163711690442,3.04578194439,-2.38335009774,-0.24948412478,32.985309259
off_to_on,-6.90861623366,-9.38807679732,-5.3823665965,-0.245435679872,1.1794073281,-6.12478005716,-8.61388777787,-13.4939804131,0.0859285873454,-11.9267824124,-1.87810838299,-13.6023089005,-11.135682582,-90.8775886997
off_to_on,-4.4588426747,-5.04964640032,-2.22148883029,-0.0298594915833,0.291056351916,-2.00480786406,-17.6520316351,-18.7588608368,-0.155135959231,-10.5451699658,-4.54114868172,-9.58976497368,-8.64607182697,-102.207535016
off_to_on,1.98083144387,3.51300832155,2.65705182765,0.0671157859745,-0.424023962514,2.24610250128,-8.0783238073,-2.30748712692,-0.253353940519,3.9247794012,-1.73223701532,5.89723770577,4.37655018838,14.8623119052
off_to_on,5.69125539678,8.38736984429,4.94876890496,0.235227567484,-1.79195603619,3.06375501961,9.0642061094,17.2340554049,-0.202592455626,14.0698031373,2.96032554865,14.9078461624,12.3504211537,84.5306028967
off_to_on,4.02428551005,6.20863743128,3.7247576709,0.264773142459,-2.86341732455,2.28793248533,14.9193793465,16.7321955051,-0.0718593629564,8.36056277738,3.45615812507,7.90736570499,6.8037795185,22.1358024387
off_to_on,-0.267976020982,-0.294204225495,0.481154204885,0.0258676823693,-1.64656390485,1.65162185108,6.12350886593,-1.42601190613,0.0632812904264,-4.81973246055,-0.865566362676,-5.65759378488,-4.74012082188,-43.2166948117
off_to_on,-3.17996374204,-5.63273635891,-2.78133106373,-0.0902046792473,1.48902161801,0.00810614118868,-4.4714459831,-14.1354098512,0.151236295599,-10.0083448742,-4.28664944629,-10.9798792292,-9.82098397554,0.965010333149
off_to_on,-3.12962477934,-6.03745909354,-4.15072802498,0.137527906842,3.49924058121,-2.79879685012,-6.63961162365,-8.82463382074,0.169807520361,-4.42525930684,-2.30670059979,-5.44768621826,-5.40565297451,63.6498644458
off_to_on,-1.21970040717,-2.28612225406,-2.84567321438,0.176987296422,2.40340678125,-3.93401718125,-3.21625429109,3.13288277386,0.117059256075,1.97617306166,2.61334264551,1.88471841664,1.53350882016,17.6255653913
off_to_on,0.657991956009,1.67565193769,-0.241377535235,-0.364075885591,-0.444482810124,-1.71877455083,-1.37461130656,6.01551126903,0.00918552411634,2.38524897107,4.59993360216,4.05417721404,4.38907015854,-75.002051657
off_to_on,1.5670061677,3.34707894513,1.64546062948,-0.758982976096,-2.43324097498,1.43575524323,-1.70647130983,0.56415978498,-0.10481131449,0.566581973609,1.78754625879,2.88174826616,3.51530452291,-66.3765199476
off_to_on,1.73748104942,3.60187235926,2.53919328137,-0.110976251898,-2.40287490153,2.54744155293,-0.137949264403,-1.94706626496,-0.154126994151,1.83604639165,-2.2205466502,2.46152596116,2.58952041988,27.429189022
off_to_on,1.47290178346,3.30906161061,3.10735375542,0.983726367244,-0.697943593143,1.96843689879,3.92225409417,1.71352130814,-0.108408078555,4.10875404772,-3.47934688235,2.24282955078,2.20867172546,58.4743770155
off_to_on,0.473217613284,0.883335186131,2.5016248088,0.963160100807,1.65386181112,1.48323931154,6.31441283089,4.1112792551,-0.0176009463521,2.24188021627,-1.75357692558,-0.346961851079,-0.0708666142711,-3.10545935209
off_to_on,-1.29766043145,-4.05887474053,-0.555563398452,-0.375343994552,2.87311171358,0.861457529885,3.79483467433,0.43965025398,0.0453279480335,-2.98337793309,0.667891189932,-4.01639193623,-4.39685020775,-32.6993802441
off_to_on,-2.6284781942,-7.14407463584,-4.26178677532,-1.33250385,1.35735864925,-0.91518790684,-2.15211349197,-4.71687561706,0.0678364358653,-5.66183172487,1.92544881202,-4.6808540973,-6.68855553915,22.3610924745
off_to_on,-2.02243868107,-3.84202025611,-4.5957433232,-0.639322917968,-1.92384661709,-2.74030857466,-6.8730962925,-5.11563155666,0.0817970704484,-3.27213128376,1.50590317743,-1.53076350781,-3.60037077913,55.1912082335
off_to_on,0.274674795451,3.26983251762,-0.820853945955,0.75792304143,-3.49918451813,-2.70250331238,-6.4091405373,-0.94080386788,0.0821774988862,0.496451283867,-0.0669997793306,1.76277075361,2.50744962137,-5.27490849901
off_to_on,2.15649286811,6.65964386765,2.79792165764,1.12004580052,-1.48337120344,-1.21002661207,-0.769607079642,3.23841990554,0.0294393226679,1.92231648043,-1.29119039457,2.4303766832,5.99214162866,-66.7888450772
off_to_on,1.97499670248,3.62557002482,2.59317033363,0.28573653077,1.74333570011,0.0457778941902,5.28018489795,4.3596612576,-0.0610447137238,1.98226569394,-0.659607827531,1.88323208295,4.61864164673,-33.8440059489
off_to_on,0.346686314092,-0.797440903126,0.288963003137,-0.493526069332,2.73033636178,1.22135508081,6.02641602923,2.40774595992,-0.106049952171,2.89700202081,1.25679117893,2.07159177966,1.27166565107,31.3482334518
off_to_on,-0.765944006094,-1.88901822128,-0.184534669566,-0.554435374525,1.45800876327,3.23352489712,1.07169547251,-0.882568185133,-0.0640057943011,3.36554954435,1.79024798409,1.65417840439,-0.918601256693,24.0451516343
off_to_on,-0.335769518082,-1.18988052821,1.37876580883,-0.367056986164,0.318537883616,4.3499752969,-3.56364921486,-2.85651084465,0.00406271113968,0.77349433749,-0.393805530086,-1.13523439739,-2.08661977989,-23.2032947008
off_to_on,0.714336472107,-1.80636204593,1.75057826975,-0.23916246912,-0.191128223734,1.79251047723,-2.59336953368,-1.8315514655,0.0268371912617,-3.49197568401,-2.85764006982,-3.8840689761,-3.20403138585,-9.65032210532
off_to_on,0.565667409491,-2.51383685889,-0.537236242746,0.164799809197,-1.52629067429,-3.07937045954,1.73770233563,0.398975339518,0.0200369557678,-4.95685100358,-2.25432560854,-2.62720767161,-3.24546190952,47.9380687029
off_to_on,-1.42596862636,-0.789227166203,-3.30006493317,0.743580037171,-3.13769191841,-5.29557307685,2.8401736893,0.368103017596,0.0341779512751,-2.40197855772,0.92487614308,1.28600935071,-1.24089236494,43.5950730411
off_to_on,-3.45259669641,1.72978431508,-3.87053130819,0.658118194446,-2.21832921426,-3.10623184283,-1.10935859435,-1.67024675947,0.054008814993,0.41642671799,2.77839382111,1.92106852229,1.05636967569,-29.2703210278
off_to_on,-2.57477867341,1.84625704706,-1.7725643561,-0.259008826666,1.4664478495,-0.249376469781,-4.83072743448,-1.39619750962,0.0272448542082,0.704690642024,1.39851174117,-2.00772651223,1.61185532369,-61.5846781748
off_to_on,1.69458472593,0.665154925525,1.71780296043,-0.843597654633,3.91635088385,0.459936751776,-3.24493800665,2.64505417724,-0.0327950031048,0.79261717081,-0.642247472615,-3.65995978826,1.68150906575,-10.7252997419
off_to_on,5.58748707516,1.49205012619,4.51393902073,-0.240210968252,2.27002685038,1.43781358628,2.12423838431,5.42175024187,-0.0567404014985,3.48845596774,-0.458613430084,2.04266839602,3.37527600128,34.355525553
off_to_on,4.67215765321,3.09151099379,4.35992153774,0.626471150589,-0.89629905255,4.79642897263,5.6085597674,2.14524987014,-0.0272340653889,5.95766394063,0.754066346141,8.93695785441,4.63485908281,8.60437680074
off_to_on,-0.477703655824,0.946902093881,0.895936182633,0.356534282785,-1.5234398915,6.4953385986,4.0031483383,-4.19662844459,0.00159035328038,2.87083062299,-0.0669829604227,6.58331540561,1.21416221331,-27.188838485
off_to_on,-4.36279054452,-4.48047970627,-2.83167009477,-0.689600876956,-0.139249158981,1.55417864272,-0.875222570007,-6.37494472808,0.00129631172739,-4.74969378181,-2.51122478589,-4.38908121269,-5.73950612267,-3.4775767742
off_to_on,-3.41974377141,-6.69761146523,-3.34140078263,-0.826934753733,-0.245734312676,-6.79880400638,-4.5566524181,-2.41893582652,0.00694327454448,-8.83624652778,-2.776710145,-11.3796892718,-8.88796182382,38.0556787422
off_to_on,-0.479311207561,-2.3417307737,-1.32029781635,0.368829733225,-1.8995141649,-9.44569478134,-3.6330033921,2.83422750754,0.0341279736682,-4.50253929893,0.5727048357,-6.40041467385,-4.0101366757,25.4250845785
off_to_on,-0.106331518306,3.68490449909,-0.463805151388,1.32025408006,-1.48968377648,-3.32169307193,1.09388678108,4.8383586959,0.0364567622471,2.96375109,3.89392920198,3.26496862606,3.70346996407,-17.3153802387
off_to_on,-1.57237108456,5.16667594075,-1.42921443594,0.714011510757,1.66168310685,4.46986521243,4.19632756654,3.41960304457,-0.0098851554165,5.01455963304,3.1811192977,5.89010862829,6.28422425171,-20.5776509198
off_to_on,-0.333582582086,2.45735304961,-0.679284037856,-0.679392807878,3.15753920364,6.27735205705,0.934970603011,0.0511572046859,-0.0468767824961,1.25630562871,-0.533588406034,1.47551715354,3.16389220869,4.74933950341
off_to_on,4.05146590647,-0.0782753023904,3.10003185321,-1.21865826493,0.273029817612,2.83012364873,-5.50580664176,-3.87772275241,-0.0202280541059,-0.956775106233,-2.82078255638,-0.398495587149,0.293785962498,-4.30304768169
off_to_on,6.12599565731,-0.912953952015,5.45487404929,-0.559248714794,-2.99385848596,-0.279558405174,-5.72999366345,-5.29823652406,0.0285703072548,2.08092788286,-1.8212744963,3.49958302396,0.669458663278,-35.9436032098
off_to_on,2.2777591786,-1.40655313591,2.37766108887,0.323907821455,-1.4302877843,-0.887662653643,3.46794144964,-1.29528047603,0.0259743483014,4.89776304947,0.069681717904,5.27545361329,1.00051797923,-16.2660263035
off_to_on,-3.65317095424,-1.62108152962,-3.00024359548,0.700031400167,3.15398606103,-0.915182454825,11.9555798308,5.14523377969,-0.0161720486706,1.20638760532,0.408317492822,-0.978945274274,-1.66568340819,49.9862715532
off_to_on,-5.56607390434,-0.722950749812,-4.41416582882,0.6348638092,3.91976465669,-1.39190978965,7.59709999417,6.25220372445,-0.0257967091861,-6.23307439627,-0.0895784116287,-9.01633371912,-4.85971003653,62.5963538934
off_to_on,-3.09914339647,-0.0149783956598,-1.44271249092,0.274891977044,-1.08993625929,-1.40631944477,-6.6866616486,-0.277051266621,0.0082026606194,-8.62020741705,0.370667352027,-8.71652875473,-4.56944872389,-15.6633602281
off_to_on,-0.586983424819,-1.05042318924,0.571929734711,-0.348058396741,-5.71234641323,-0.993585470543,-14.7214619373,-6.59869436609,0.0246709933999,-2.72610529267,1.43506255151,-0.0856622679462,-0.940358007397,-81.6500410297
off_to_on,0.192345241074,-1.76153920421,-0.750910467257,-0.790715686974,-3.99619391104,-1.02159825048,-7.51875679187,-4.7940085556,-0.000850646162794,4.96066318451,1.31320147561,7.19452887375,2.65974756589,-36.1242712653
off_to_on,1.50769641592,0.845983883787,-1.55453995985,-0.469587553423,1.88045438636,-0.5428740733,5.52041914713,2.14868895769,-0.019808158451,6.62471537477,-0.285319229422,6.55867653536,4.19079596586,66.7955861664
off_to_on,4.02730553772,4.68357610137,1.30393727766,0.326165726244,4.99398257674,1.96046437895,10.1343028671,5.12634114142,-0.00202599870949,2.28102696756,-1.74051313225,1.21836817378,3.90349957522,92.9630035669
off_to_on,4.5423452898,4.40584836383,4.76434900385,0.582427040334,2.79590819293,4.61131450721,5.2671828812,1.99464798716,0.0139096181887,-1.69515645936,-1.73962665912,-2.18026110621,2.22632927861,8.10117892324
off_to_on,1.16211838258,-0.369665096657,4.07986460209,0.0515279989566,-0.750078286105,3.36632443474,0.372048467006,-1.12099340128,-0.00317831632289,-1.22836077831,-0.485472612717,-1.66346931901,-0.535364938069,-93.0126822205
off_to_on,-2.97509495087,-3.9750236507,-0.35588563625,-0.293728237165,-1.59143317673,-1.76302101884,-0.677492439564,-0.712301369473,-0.0181207063169,1.24598563901,1.10447843892,0.0882462203074,-2.99555181847,-113.511293481
off_to_on,-3.92742057662,-3.16411926154,-4.06491400038,0.170704322527,-0.524256447242,-5.39252622451,-2.80963101815,-0.323829968261,0.00467093515637,1.17980602453,2.06564713896,0.447972947396,-3.5782939617,-40.2401841364
off_to_on,-2.25046014394,-1.24997650606,-4.37739854774,0.588390609086,-0.504362921707,-3.61982487028,-7.27826448123,-2.42176626591,0.0316244960415,-1.98892624635,1.44581369765,-0.923475855802,-2.51820665584,77.6920146048
off_to_on,-1.05854019203,-1.31735836452,-2.17685210717,-0.0432859266224,-1.68598516909,0.808767677016,-6.82101672717,-3.16592052628,0.0151228576823,-4.62066726272,-0.740094222498,-2.78818957014,-1.21884384784,160.649664225
off_to_on,-0.773944636197,-0.844036498631,0.718233382756,-1.07082303834,-1.60084577378,2.68940706568,2.0227486272,0.554552624323,-0.0230172881933,-3.70134044492,-2.52572865082,-3.27973707282,0.0374041884759,122.885381058
off_to_on,0.637648341297,2.67244337579,2.81338709627,-0.935442452731,0.609445338715,1.30244451407,10.1253452327,4.54750150709,-0.027687612688,-0.0648133039925,-1.6876912573,-1.07572481104,1.89240976714,-43.2656732601
off_to_on,3.13464472364,5.4847313362,2.66191156992,0.472483378204,2.59445347396,0.0338590430723,7.1504999145,3.32473568558,-0.00195222108864,3.39957216792,1.07332833451,2.97269174499,3.73648873606,-199.399056697
off_to_on,4.00692667866,2.87743785371,0.43525648098,1.47774331415,2.02343403122,0.568115537467,-3.00000259097,-1.09223353487,0.0060096846516,5.10405100274,2.41232202955,5.9445956356,3.82661378014,-174.945767894
off_to_on,2.05791446245,-2.40471595431,-0.959514122993,0.892646686859,-0.190832928912,1.05213938065,-7.01988010099,-2.44064866277,-0.00826311967797,5.01967690858,0.746057765637,5.39280869487,1.7349909272,16.2573501677
off_to_on,-0.739117207349,-3.64161291336,0.572115216783,-0.475815685573,-1.2316623681,-0.0491671858643,-1.01546801719,-0.109813783245,-0.00206243861956,2.70062016597,-1.41141926758,1.34688720087,-1.13113099373,166.135644051
off_to_on,-2.45728564063,-0.594797646541,2.32778639644,-1.13270500049,-0.298460582888,-1.47129886524,4.62787516416,0.643875692677,0.0292274534324,-2.36617114885,-1.09292818943,-4.12090024201,-3.51715420407,131.692916253
off_to_on,-3.27677349645,0.533989273165,0.0650930280066,-0.787782625179,0.460992462966,-1.50693604215,1.12800062219,-2.04881185282,0.0357398130259,-7.83075944824,0.758880782122,-7.98268527901,-4.88719205849,7.86615681636
off_to_on,-3.33888822654,-2.22431767767,-4.838860897,-0.161465678546,-0.652522534562,-0.569269422686,-6.08879720273,-3.51239880216,-0.00123721004464,-8.57529201129,0.960750795854,-7.11279445066,-4.06887876552,-40.7725198332
off_to_on,-1.43904218469,-3.24634952296,-5.86276088879,0.374057399848,-2.09613539759,-0.0139689659758,-5.94855672,-0.204712640139,-0.0331284258596,-2.3245937045,-0.812278299741,-0.715803348192,-0.0755649419433,-21.9637440644
off_to_on,2.2522526692,1.02277134851,-0.372973835958,0.90111628414,-1.22623228126,0.146097859387,2.33629290872,4.53875978859,-0.0228142443008,6.00004416443,-1.58401992509,6.95908376539,4.89062574888,-51.5070019992
off_to_on,4.5474672316,5.59573491188,5.9123042575,1.0598058865,1.50713735803,0.839531812976,8.77698287374,5.21376075895,-0.00117184225347,8.6709177125,0.081961101451,9.02489911932,6.16653977725,-111.029692477
off_to_on,2.91942140199,4.4197486609,6.20224933551,0.249190238636,2.7429865013,1.9139219761,6.35081391574,1.24584235822,-0.00574118885766,4.09605977259,1.78909988239,3.45791115476,2.29893509345,-58.1009526011
off_to_on,-0.620667671308,-0.579804358388,1.2228359707,-1.11787404454,1.01341362762,1.88396659951,-1.13832487266,-3.29816712917,-0.0144377149822,-1.60554157866,1.12914261554,-3.70103867881,-2.31884326508,108.288539893
off_to_on,-2.00432488775,-3.16127550156,-2.88876397596,-1.59630762274,-0.980027324589,-0.123564656035,-5.77002287533,-4.7982457739,0.00842408403847,-2.89218831252,-0.693579366966,-5.35245883854,-2.93346728044,183.6660336
off_to_on,-0.639252212997,-2.11434781735,-3.03322302335,-0.476067193172,-0.506054102495,-2.80525307621,-5.03713344336,-2.70984846029,0.0397916418549,-1.34445892193,-1.0867493564,-1.88743603677,-0.648905755449,48.9924084736
off_to_on,0.332514302579,-1.21459688012,-1.48343358184,1.11268932452,0.816128202724,-3.53202840159,-2.1527280327,0.954379653863,0.0316621603278,-1.50964239831,-0.107508766503,0.688733081927,-0.0578586252815,-129.55327906
off_to_on,-0.874693160431,-1.71037060634,-0.79442459735,1.49035455761,-0.352565805123,-1.06014341769,-0.0544333292149,2.97445563305,-0.00701941388697,-3.20440052988,0.235574554827,-0.12040213092,-1.97966522437,-129.525537099
off_to_on,-2.24974158641,-0.882747192239,-0.557138896853,0.418590101562,-3.11557840568,2.63127418048,1.4680320704,1.61068842998,-0.0244297998339,-2.33382790849,-0.345108857627,-0.83718701319,-2.53797388732,10.7257490708
off_to_on,-1.4167772235,1.97541909565,0.307733394197,-0.80846779264,-2.86548834099,3.9377775813,3.40092763599,-0.73769397493,-0.0105465051951,1.67869555411,-0.241287005908,0.947030135936,0.361546392223,75.344923735
off_to_on,0.928467258901,3.61459473719,1.37635546049,-1.01555347032,1.56536958473,1.62131517055,4.80724959915,-0.0307779144676,-0.00513965244248,4.2827240887,0.771770454308,2.34315407511,3.59262763342,7.41380536107
off_to_on,2.43696864692,2.10168397422,1.95039286889,-0.273859519608,5.11649440958,-1.59280101778,3.38792967723,2.93194294078,-0.0205922088971,2.6702954769,0.893039645701,0.621486812964,3.46580466966,-37.1260320599
off_to_on,2.23959889794,-0.358204662295,2.02245295927,0.534529440851,3.21040040613,-2.42698727572,-1.54326884068,2.29393929846,-0.0200127499387,-0.166494740074,-0.449825615678,-1.50785388424,0.749969066143,26.1310661079
off_to_on,1.08669059106,-1.48219770996,1.12438248479,0.688552947251,-1.71600311517,-1.14570387798,-6.81272735798,-3.72179462132,0.0120170620142,-0.642264241749,-1.24489142514,-0.337875762638,-1.28387479819,74.4793388311
off_to_on,-0.382158726511,-1.92740683908,-1.41015708021,0.0993446370386,-3.78031326544,-0.419531707065,-7.07280793247,-7.69114538774,0.0354432679354,-0.0629385003435,-0.100351441403,2.10834347185,-1.59920826235,1.95319429799
off_to_on,-1.77836255995,-2.34860684856,-4.04252978984,-0.681982813237,-1.79285522761,-0.725221315438,-0.516283237229,-2.46003073068,0.0205639570178,-1.28021056793,1.29491800683,1.08627806562,-1.4547671453,-91.4532065305
off_to_on,-2.15661455727,-1.17650013215,-3.49284364385,-0.793436600518,0.315172934723,0.240749486363,7.21035075006,7.01391138504,-0.00212362966768,-2.77501416375,0.752324376952,-2.534397688,-1.21072446112,-62.7084749851
off_to_on,-0.872417335295,1.96753504903,0.689371284324,0.12396680858,0.379265522215,2.9036535531,7.64863188076,8.61693615608,0.00275310866894,-1.0162072459,-0.920018037665,-2.9289885478,-0.121700241804,41.0171595064
off_to_on,0.944037942869,3.78353089148,4.29078103806,1.23899610875,0.528410869193,3.75482500254,-0.332656997716,-0.151288192627,0.0114283509449,2.53945223613,-1.22388779633,1.08844249274,1.18229468746,65.9943611083
off_to_on,1.3113495991,1.55924161599,3.41125125055,1.16327674963,1.98371414651,0.30128157067,-7.68104530374,-8.05702751731,-0.0162120682196,2.41299969291,0.108579955725,3.19418656696,0.945066103592,-0.666800109567
off_to_on,-0.0599142461324,-2.28406676932,-0.454257885695,-0.34135538121,2.08405969798,-4.22428737027,-5.53038082563,-5.53532136975,-0.055494521459,-2.12767948437,0.918825341088,-0.771340859745,-0.648475767053,-31.7627740222
off_to_on,-1.32050575995,-3.29286640588,-2.75911768054,-1.72854041362,-0.840908160092,-4.47207134221,3.33423403691,2.73080743311,-0.0398140739296,-4.56401651724,0.196192834911,-5.29740367545,-1.13780704534,14.9598544019
off_to_on,-0.769754590764,-0.987255178619,-1.9001472715,-1.3487887287,-3.41054757973,-0.317976427612,7.76755633443,5.88311208838,0.0346282319954,-0.131239767974,-0.530519493175,-2.44695659976,0.660924190364,37.8841838439
off_to_on,1.30683226619,1.55078449366,-0.0344846348946,0.45228082978,-1.84785787942,3.02217827461,2.82930441539,2.19565804351,0.0821741088733,6.68816320021,0.0376021751097,6.08020198291,2.74253942412,-18.1131062045
off_to_on,3.08977197401,2.56091336763,1.05954305174,1.64513785796,1.79502216443,2.34009397649,-4.25239473881,-1.14170693606,0.0324302592814,7.51979740319,0.862288755296,9.95824459233,2.54289119107,-63.3724264771
off_to_on,2.66478447745,2.33987089312,1.53893243633,1.00057160435,2.4788296147,0.186370834344,-4.94011991558,-0.897382445008,-0.0685668909596,0.636483474461,0.415383347825,3.36108840421,-0.0647644052371,-20.5524476819
off_to_on,-0.618868114317,0.410070046715,1.14437063695,-0.46872720617,-0.0850190723864,-0.0516832250383,-0.99958189467,-1.60493714444,-0.0975167184808,-7.55611837017,-0.831494042836,-7.65877964436,-3.21720308562,43.4398911174
off_to_on,-4.84221385778,-3.41995339534,-0.962933786675,-0.956265757707,-1.37025110368,0.689325506228,0.0652261613165,-5.25039697755,0.00293083596023,-10.134435302,-1.21016422706,-12.3896767426,-4.89876328196,34.2782267516
off_to_on,-5.89580717343,-5.58278352823,-3.16810276043,-0.169905731803,0.349818107445,-0.288476497946,-2.09164404757,-5.45500556748,0.138488282,-5.40575587886,-0.303051284996,-6.80892816886,-3.5377385947,-14.4966180512
off_to_on,-1.38310136184,-1.75021021565,-1.92755131235,0.537591795691,1.40366272574,-2.18327960176,-0.251063429857,2.70732612365,0.144266897259,3.48435689974,0.769944274788,3.83432521086,1.1375214886,-11.6162510443
off_to_on,5.2928643763,5.50938848195,2.65867413664,0.155467091263,-0.694591704735,-1.8194740532,7.10692937692,12.205145267,-0.0295667032014,10.6861424507,1.04875552276,11.0486464611,6.268429634,30.1896765313
off_to_on,7.21717198474,7.53744275559,5.08801487531,-0.694344052711,-2.73728243225,0.792277990194,10.3061108779,10.8016101252,-0.224620778563,10.2749423566,0.546055466824,9.84392939468,6.92590426716,22.9085878274
off_to_on,2.02068149426,0.972407956622,1.41468240641,-0.74923210118,-1.05255446085,1.9644969158,1.61825614973,-2.44516887335,-0.215343885627,1.48975753147,-0.320829867454,1.71868402069,1.51779603887,-36.5257638966
off_to_on,-4.44289409927,-6.4660551206,-4.41988286006,0.184530444736,2.28079382314,0.0807747316255,-11.4249401695,-14.0912324945,0.0282202541005,-8.18828363841,-1.01962721546,-6.66686190784,-5.0846184808,-56.637083665
off_to_on,-5.02116426272,-5.92368730808,-5.20145761925,1.07013960797,2.59639586805,-1.65412835813,-13.7724781173,-12.0781508756,0.264420924504,-9.66310398789,-0.85180832562,-8.86103863016,-6.57153998786,-4.80609635681
off_to_on,-0.293475964008,0.683996197894,-0.210960780617,0.985509837889,-0.0827731363811,-0.123191468837,-2.53462024994,0.0623040364177,0.233843664476,-3.00107131694,0.289775111519,-4.43682487329,-2.63687424122,41.8057713092
off_to_on,2.83451988037,4.35701537817,4.0629698839,0.0914559119364,-1.48942612836,2.68661617464,9.07088713211,8.76873269212,-0.0272747607019,2.90519307412,1.22711169197,1.24131260386,1.52563214573,26.1030139578
off_to_on,1.00609055238,2.11987165269,3.15288639762,-0.778976023153,-0.118948315346,2.44507874903,9.20451349455,7.39474226727,-0.216312847337,2.77932922468,0.701476073252,3.6987997268,2.64366780581,-7.0258719169
off_to_on,-1.57790241608,-0.480366673573,-0.0470119272757,-1.03568594896,0.817433235918,-1.09285537125,1.5941272932,2.0510955091,-0.132741987699,1.27873045474,-0.708083212729,3.68793445966,2.43460038247,-3.97412143075
off_to_on,-0.471806777606,0.255568225148,-0.970781750396,-0.638522448062,-0.826081694894,-3.63034810422,-2.33863018202,0.483716598185,0.0759312073483,3.45101881574,-1.107629049,3.47783472954,2.62869100293,9.24745698294
off_to_on,2.03745546335,0.75510632114,-0.22604759077,0.130633160059,-2.51567570789,-2.33332342449,0.0695984932012,1.27456903988,0.11872063925,5.15288654918,0.0119746527603,2.03672920205,1.40647877973,-5.61830584672
off_to_on,1.02873294893,-2.17271349349,-1.13447154629,0.830835632757,-1.19753612519,0.631850177589,1.43449061584,-1.66139190631,-0.0502703588324,0.0267375765831,0.93295062906,-2.27936444409,-2.41333069055,-16.9299131285
off_to_on,-2.64894333856,-4.59292747567,-3.10037061875,0.974797474771,1.93874877653,1.71042825369,-2.57513364967,-7.50736242009,-0.178204171745,-7.9223650473,0.258855071173,-6.27340999941,-5.17974886221,11.4107278862
off_to_on,-3.16816053423,-1.47180622735,-2.16716731411,0.391563830059,3.36820406592,0.801192596027,-6.72815027248,-8.24448210003,-0.0612250189024,-8.03314554791,-0.924420866903,-4.53869449924,-2.74955261215,28.841660501
off_to_on,1.2879770109,4.46372029965,2.20101462036,-0.479332136414,1.97609221752,0.418888109862,-4.6621013308,-0.525779042091,0.18036029955,0.957771574214,-0.649797493351,2.12361929176,2.69086664137,-27.3611330682
off_to_on,5.22748966103,5.86638086568,5.27430729856,-0.919245602435,-0.512185958201,1.29334221944,1.98544483305,8.16015272883,0.260135900238,7.83294620912,0.921643788587,6.13879305979,4.77819298881,-95.0950972827
off_to_on,3.39095404883,1.24101848716,3.33769620917,-0.621590323476,-2.44061742854,1.39337011007,6.48217074895,8.74383961315,0.0867789819804,4.71792098328,1.60180247103,3.10568762684,1.69132633722,-42.6779922923
off_to_on,-2.10703890559,-3.39444503129,-1.35961675437,0.0960844879078,-3.12178723404,-0.516752735064,5.60321241995,2.0611837974,-0.147319582829,-2.24114115823,0.24915802886,-2.17347271181,-1.78052398815,119.778720838
off_to_on,-5.10818298092,-3.4331070092,-3.95606119612,0.700294594122,-1.84936973798,-2.59024983737,1.6642467805,-3.56821914196,-0.225120046042,-3.29115586714,-1.60639178392,-2.9268935493,-1.73243365417,195.94474039
off_to_on,-3.44903120619,-1.08094113649,-3.04855660471,0.81177061361,1.26085336485,-2.39098379024,-1.94258255252,-3.83581707926,-0.137618554358,0.616656438976,-1.76232742672,0.0805119934953,-0.251307465654,44.5883360423
off_to_on,-0.211986130389,-0.298307513819,-1.01698233091,0.280562023691,3.71104203577,-0.318376073473,-3.62669060985,-1.9233545953,-0.0180560083985,1.48739105408,-0.110581466935,0.989583846119,-0.74454562433,-201.177843808
off_to_on,1.76120194888,-0.758586514956,0.283242699726,-0.64647767381,2.61372785216,1.12087489228,-3.02548050427,-1.14917781512,0.0588549116322,-2.00813987075,1.39495255945,-1.50293898701,-1.99979031432,-258.739198489
off_to_on,2.73618990006,0.226623948702,1.32181144747,-1.17973683767,-1.19333014378,0.933503389369,-0.884513569144,-0.38423347169,0.117501898417,-3.36826370227,1.23324535213,-2.63101305086,-0.65363553211,-38.3884523742
off_to_on,3.28530932803,2.5954456617,2.55263253966,-0.58058279252,-3.31793899835,0.679927963071,0.623605918591,1.42486427454,0.16188457434,0.224591516444,0.000698360347552,0.360169025143,2.67812028342,227.832706396
off_to_on,2.25897604743,3.66312414017,2.81336414422,0.782448457336,-1.22700180816,1.53165878741,0.0948749555836,1.77524631423,0.128776763101,3.68489989778,-0.621057910359,3.92180318752,3.94454901812,249.004468417
off_to_on,-0.765314702433,2.10213279649,1.06557649999,1.48197462783,2.29329914601,2.04051200259,-0.686174883488,-0.655935259924,-0.00724596612527,2.79086352798,-0.0913918912387,3.70908144686,1.64382523098,17.209464306
off_to_on,-3.45812584618,-0.844615684624,-1.65822298156,0.65552105737,2.6647567556,0.259497618867,0.930480033641,-2.0473203209,-0.154459087907,0.0463922733073,0.435858487565,0.352252562743,-1.49498215181,-191.853773462
off_to_on,-3.36289830976,-3.4122735148,-3.16377803474,-0.793868927324,-0.608967280059,-2.83514704973,3.792533945,1.01088133876,-0.189738080916,-1.00580958281,-0.107232677459,-2.62318953211,-2.91901662944,-160.02858001
off_to_on,-1.22305628773,-4.41736448938,-2.44400413726,-1.26202053314,-3.45471248099,-3.94835827963,3.67783285203,4.89089325028,-0.0984409135859,-1.31344077313,-1.04926749297,-3.55742666003,-2.90335302191,21.2956641895
off_to_on,0.345429821026,-2.97670176796,-0.465117328956,-0.454268405179,-2.43524584532,-1.64209118906,-0.507528331178,3.37733374899,0.0197290611306,-2.44968787613,-0.877832402794,-2.76596268312,-2.13040491049,104.489902314
off_to_on,0.658381191853,0.630663706276,1.1033233588,0.445104449776,1.20774164984,1.74090223661,-4.3473374508,-2.69351481364,0.076327890606,-2.29685650773,0.462271089948,-0.453210880671,0.0169283078604,23.4388933104
off_to_on,1.27214426185,4.01048057112,1.49990921365,0.529187228,3.3912830371,3.08095742415,-3.61773155458,-6.11979676474,0.0811780864609,0.818338227197,1.29624316181,2.50661389374,3.14023954576,-50.6069005483
off_to_on,2.6813954184,4.54135837174,1.27248100556,0.171674956642,2.1113651747,2.05768617677,0.018881663547,-3.67197165327,0.0927278819524,3.57318602304,0.597704021106,3.5712045824,4.53295826347,6.88597074746
off_to_on,2.962654824,2.28232650387,1.21359438162,0.0491629209239,-0.621855165856,0.54253442044,1.60165934138,0.193454616481,0.11470446087,2.25797043324,-0.490216191688,1.46550847509,2.4101219849,86.7787978843
off_to_on,0.614824544941,-0.511636504608,1.06967317668,0.0817202999121,-1.73922850827,-0.442089746754,-0.235590092028,1.36860108505,0.0772210046653,-0.916702009849,-0.417662867799,-1.11973890498,-1.30499191437,35.6870171475
off_to_on,-2.72583384083,-2.37838156326,-0.103538479557,-0.0798133695168,-0.847819933214,-1.31593080245,-1.79708780586,1.88664291289,-0.0675108911119,-1.28324556676,0.402509633837,-0.874428809846,-3.36647862705,-87.0825064814
off_to_on,-3.84380552921,-3.27496183591,-2.02514030519,-0.227592969385,-0.0242639957151,-1.94879685257,0.337837039804,4.34914695204,-0.241635151456,0.698432690237,0.371293522127,1.04758096802,-2.93788948428,-98.8778698582
off_to_on,-1.82412447936,-2.7699595638,-2.67914087177,-0.0261074573231,-0.415285015106,-1.28065159331,4.64968779088,5.64256196831,-0.269987272439,0.815591798261,-0.634073287889,0.694951805984,-1.25390089829,14.9374315361
off_to_on,0.827115389198,-0.367924257756,-0.912423767262,0.205317964966,-0.746107949242,0.531497383391,6.06219888948,1.43859168792,-0.0588655711753,-1.41131814159,-1.06040414989,-2.40383303318,0.70246875613,80.8322256221
off_to_on,1.29355913579,2.1812077893,1.30556205446,-0.0293685290283,0.191869261055,1.51262309321,1.37828197554,-5.83438190305,0.24957310258,-2.47412923189,-0.233054173749,-4.33887953059,2.0785349639,17.6279713494
off_to_on,-0.0445190398568,2.05258026429,1.21833283463,-0.431885539296,1.25604328958,0.595817916311,-6.56900666671,-8.93613838575,0.365151892113,-1.40517794024,0.609879049395,-2.49635474272,1.51968017636,-45.2837195753
off_to_on,-0.190561573336,-0.127046233856,-0.406648693574,-0.289445843298,0.79841745281,-0.550920802698,-10.2614916087,-4.88482254295,0.151006315206,-0.419817376083,0.460457468557,1.43012149265,-0.601434401424,1.68419612368
off_to_on,2.16079589855,-0.262615981369,-0.0482188472907,0.302425808042,-0.332709251434,0.00178039164364,-4.68004454546,2.22487520286,-0.192470153647,0.767356186663,0.119775272407,4.71729765969,-1.00682918373,65.4751802278
off_to_on,4.05124775289,2.66106257491,2.69743845458,0.512387612572,0.00613909986738,1.30074259713,5.95709805899,6.93259108803,-0.321764865822,4.23538718939,0.530308958687,6.11033946057,1.91201395546,19.611988248
off_to_on,1.64285473799,3.55102217695,3.25964094521,0.118139511095,1.37950971818,0.904260088713,11.0115984122,6.98266343213,-0.131161552597,6.69462026465,0.887024239945,4.14202248674,3.82845970543,-72.783482123
off_to_on,-3.93305868644,-1.46905810204,-1.25875244393,-0.163126013164,0.905949007734,-1.1291880609,5.25462949756,2.76004352746,0.139387745619,1.53199527398,-0.013368283728,-2.2715949213,-0.266241258823,-64.6382148829
off_to_on,-6.5295124376,-7.41440850127,-6.18301837307,0.0589000346577,-2.0009240143,-2.06014022597,-4.35046481542,-3.32255770936,0.204397030844,-8.70237638292,-1.42669682998,-9.14226707617,-6.87422252262,27.1354631664
off_to_on,-2.45002997788,-5.75864677511,-4.45809495369,0.191638533698,-3.81446845892,-0.606349938345,-7.14411977018,-6.57871598302,0.0544273503404,-10.9664291652,-1.49894589158,-8.50376196072,-6.44439256859,55.9344587221
off_to_on,3.93525022543,3.04050874141,2.92909571126,-0.229628931693,-1.65755378565,1.09142421102,-2.12222487371,-3.74847948487,-0.0935317340394,0.258247905958,-0.112246312242,1.05578064184,2.72389379562,-5.97195209658
off_to_on,5.08752353371,8.519284529,6.86643394736,-0.627211293003,2.31553180743,0.817136835473,2.28176723516,1.90879385676,-0.0974178739671,11.5669101173,0.939286421588,9.18814495225,9.54239541179,-33.9598546052
off_to_on,0.182313243697,3.89139156438,2.16506342411,-0.31816622653,3.79980831552,-0.392701676982,1.09132259509,3.47496290142,-0.0217750971233,7.53438962404,0.702215322246,5.84447189547,4.45166684251,22.7281504635
off_to_on,-3.7104973702,-4.59097117452,-4.9107816138,0.301433519914,2.06039755704,-0.190680704885,-1.18703658978,-0.192910929663,0.0205691611627,-6.23736180413,0.203763895291,-3.99534561003,-6.23431073297,56.1757612162
off_to_on,-1.36796698159,-6.20414704673,-4.96825143692,0.409116444898,-0.121724987409,1.12828109811,0.461654165371,-2.51198006323,0.027256724857,-10.0121547454,0.367452220424,-6.08619457088,-8.13119612025,-3.97304963311
off_to_on,3.50560732961,0.0258652201817,1.72414535727,0.119209188101,-1.19198724101,1.0923305247,3.11014417371,0.836364938946,0.049138983961,1.28741207232,0.506227659283,2.56088242097,1.08079664975,-65.0311847009
off_to_on,3.86859374839,5.2773589409,5.99466091189,0.162536114718,-2.03251558764,-0.8270518697,1.43890653896,4.84813043833,0.0680422798672,10.672761411,-0.159712400913,8.59692552423,8.419555946,-32.369307523
off_to_on,-0.795898429739,3.58141516227,2.53426595225,0.461148234642,-2.58347895766,-2.08311665185,-2.85008685704,2.6263943521,0.0265821567083,4.68157553952,-0.903691443598,1.81583784164,4.17403845594,31.3077955413
off_to_on,-4.48165337038,-1.5312256811,-3.59329148311,0.18980662687,-1.14239184369,-0.785253577895,-3.62702314296,-3.81726187023,-0.0585161007144,-7.17551133081,-0.687625125543,-9.19070484166,-4.94642725303,22.4360090566
off_to_on,-3.42322781678,-3.85964916669,-4.82735637658,-0.66768257439,1.82862835449,1.45182629064,-0.0486478821808,-6.13974989256,-0.102716831914,-8.07049908403,0.0493922373569,-9.12849968484,-6.57962447668,-25.0850127225
off_to_on,-0.201036943584,-2.59321324117,-0.968011285688,-1.00372512721,2.85141209909,1.7952034819,2.84698853821,-1.5217302807,-0.0688487452107,1.05056631341,0.173089072215,1.80719595102,-0.240962170366,-10.7796939504
off_to_on,1.46075203217,-0.755378194476,2.23932678013,-0.261085287414,0.580641021415,0.0375083204801,2.45513689426,4.04833556547,-0.00453114388032,5.23913065973,-0.247123177888,8.57223850406,3.87369171567,47.5188026283
off_to_on,1.60715722618,0.481346887914,1.65168998962,0.60689167783,-1.38094856511,-1.49783818226,1.07411478054,4.59735765131,0.0408921589076,-0.359608931291,-0.208240591821,3.19529905932,0.867582022098,43.758836058
off_to_on,1.83682707824,2.01180275128,-0.247415495677,0.550387249669,0.0999444509316,-1.25567193784,-0.137201331862,0.957482397276,0.0694986620236,-4.6034252484,0.463930663836,-4.7428375413,-2.76423751102,-28.1411925057
off_to_on,1.807345716,3.34369688905,-0.184561492861,-0.0283236284282,2.17594558697,0.0147757378042,-2.84824588933,-2.57328307644,0.0862130617401,0.521398121997,0.961645377982,-3.23974535117,-0.286694776105,-59.6246123217
off_to_on,0.739594719569,2.76284669083,1.57611250002,-0.056078041481,0.226838621036,0.93475026063,-5.51366005685,-3.69708181366,0.0619316447798,7.63236928237,0.869292613313,5.02395294478,5.12826693234,-9.25956181296
off_to_on,-0.326325369687,0.367913997888,2.39016308465,0.446835860628,-4.02042676381,1.14330206122,-2.7325942353,-2.16668993102,-0.0137006137165,6.12159038314,0.415235310474,7.65701318447,5.46275513373,34.131458558
off_to_on,-0.755233241201,-2.03045852399,0.544725884642,0.46916868107,-3.98547220037,0.847931302549,5.40749565505,1.56359751781,-0.0874861625694,-2.48758357309,-0.423585015064,0.170502919198,-0.917541963959,7.14955793852
off_to_on,-2.23281460063,-3.62652539822,-3.12452555012,-0.306126596119,1.68263493157,0.0234368555634,9.60942591863,4.93732495778,-0.0988167238044,-8.34213007533,-1.64283178766,-8.89744357415,-7.51070152228,-28.4206904601
off_to_on,-4.90122409655,-4.45047589432,-5.47612107298,-0.972579026017,5.95194818306,-1.10160799802,3.05293410869,3.87208461033,-0.0546937548496,-6.77028817873,-2.15973694046,-9.72914037786,-7.72735227835,-3.89267530361
off_to_on,-4.2642288205,-3.04701337944,-3.21238578438,-0.725670750924,2.99738752406,-1.58773504826,-7.51627759457,-1.87968600915,-0.00577047155481,-1.1970072185,-0.758619940722,-2.19010939116,-1.49650912365,37.8877260349
off_to_on,2.74266103167,1.98444712689,3.14154023638,0.105227063022,-3.36431408494,-0.78731973441,-9.52580408317,-6.3514491465,0.0298474261476,3.85547098864,1.64306017309,6.09580192512,5.63364203107,25.1287465064
off_to_on,10.0795601095,7.59007677152,7.74619814176,0.662427495448,-5.00308267213,0.579766590247,-1.20865616843,-4.01295522407,0.0685584217158,6.26040532262,2.49452200187,8.60677836505,7.82030368333,-17.281095128
off_to_on,7.92804046418,7.4845865426,4.98042903925,0.596971533339,-0.60654338162,1.19595921663,6.83746600955,2.658043951,0.0983042423949,4.84756153688,1.06691010814,5.00969089412,3.75487328061,-19.8077791735
off_to_on,-3.18647068279,0.147154711097,-2.93189657204,0.184315202623,3.4425132485,0.783321988844,6.28691515543,5.90963759798,0.0722805851662,0.313510984566,-0.429192403936,-0.344279263008,-2.26214881754,5.9192844718
off_to_on,-10.6615184464,-7.45692286141,-7.24589391315,-0.142229589226,2.55476512182,0.190063834234,0.0640485041812,2.41558756864,-0.0180530950725,-3.3296102196,-0.290662001338,-3.22852108271,-4.51602077657,-3.30659306807
off_to_on,-5.94695884157,-7.49938564145,-3.40565682545,-0.114135236622,-0.657403953607,-0.0192839958438,-4.47950839694,-3.18001872049,-0.1052679007,-2.96245937524,0.052060697445,-3.28966089004,-2.06302404286,-35.4655595123
off_to_on,3.74589555281,-0.878792721325,2.95939906746,0.147572793209,-1.5958732314,-0.154513356429,-4.51968914422,-4.56990140213,-0.110111503256,-1.0262881437,-1.24412251959,-3.16326947656,0.502800646539,-16.7497136597
off_to_on,5.84679785403,4.41369234574,3.82720635049,0.112127815263,-0.190216987386,-0.467820321018,-1.2134099234,-0.743668614816,-0.0282384738104,-1.4943804229,-2.72620415808,-3.75862558461,-0.46000510578,48.1340656953
off_to_on,-0.0869245146377,3.68009630903,-0.373680944951,-0.499273993086,0.409917148159,-0.572167129744,3.67630902108,3.97504646966,0.0629419761307,-2.71862948743,-1.4767745561,-2.32464365447,-2.53828346822,60.1966476063
off_to_on,-3.45254296843,0.237541489325,-2.43685766544,-1.00218874992,-0.821238721862,-0.238734647304,6.65644288281,4.70346368408,0.0775250681532,-0.0510808833747,1.9657814268,2.80257630685,-1.14262215891,-16.34408071
off_to_on,0.617274421668,-0.811610629335,0.488334589162,-0.424865935079,-1.75141839466,0.0246065164736,3.19827403014,0.311117605227,0.00248689520814,5.09667594589,3.64714839458,7.54319731464,3.26201915935,-79.2333523945
off_to_on,4.81488182046,0.460990949325,3.21089484714,0.908143398124,-0.583014906542,-0.135930199951,-5.43119206649,-5.34512328973,-0.0797771077215,5.72441608256,1.67814024051,6.10974783993,5.49351640203,-32.5669243793
off_to_on,2.01360105856,0.527371927102,1.05846387894,1.4035617913,1.88742811251,-0.124483520281,-10.0587797828,-6.41931526622,-0.0608337795539,0.0884544400648,-1.16087873598,-0.708634900099,2.86402695145,67.5527863849
off_to_on,-4.04774194393,-1.4650864435,-3.12012140211,0.365658521054,3.41104493213,0.592512899679,-4.07244451588,-1.07110587108,0.0705468055143,-4.71724652637,-1.62307949843,-5.66837244774,-1.67143803018,89.568911831
off_to_on,-5.32387564207,-2.62476787628,-3.66663406603,-0.821210859805,2.36920409744,1.19712103168,6.70849020586,5.70552850676,0.181602257486,-3.15560119729,-0.378091449016,-4.45878659874,-4.19839291434,4.09994846794
off_to_on,-1.08006924201,-0.861066070656,-0.205244815685,-0.633099023985,-0.948952084762,0.508070538407,10.5598767179,7.21588178361,0.12211009795,0.855673738983,-0.139765143592,-0.711584570409,-4.13963946932,-92.7099827712
off_to_on,2.98994092871,2.17772560554,2.9170632576,0.297093077981,-4.08803565097,-0.881907437328,4.45585055542,2.62893074417,-0.0883407900146,1.06987149012,-1.17476682652,0.477408670916,-2.51612819117,-108.419412323
off_to_on,3.74192549432,3.29797644335,3.12461689671,0.226604986453,-4.09396492339,-1.00887825945,-3.94220195795,-2.98091754063,-0.252366310729,-1.20093393087,-1.30176903523,-0.133655204253,0.593131736343,-35.461078844
off_to_on,2.51444582393,1.36771043749,1.48211100343,-0.81003056743,-0.715966090012,0.436825806446,-7.58901168057,-5.45283684407,-0.208544706847,-0.550965004629,0.335964935777,1.11760120796,4.31111724092,76.7500035013
off_to_on,0.145115216512,-1.86006787615,-0.763068412571,-0.93815214919,2.70716285015,1.09636451174,-6.34801096959,-4.84791634931,-0.00860963469264,2.53928818353,2.02883755045,3.54252581539,5.39671477195,154.242726741
off_to_on,-3.49989062294,-3.60319763481,-3.25771754039,0.512719452182,3.01221259696,-0.728592191829,-2.11546287284,-2.12715742096,0.163525982535,2.46448478727,2.13350966668,2.89676224385,1.83610933861,116.884994563
off_to_on,-5.52845428882,-2.36669286866,-4.24491956964,1.68900668424,1.13734816199,-2.92523250056,4.29936832534,2.59118109312,0.203672143696,-1.6643971216,0.912628948107,-1.35387591744,-3.31677252119,-43.3681103855
off_to_on,-2.04543267222,0.82778760151,-1.44133375472,0.873416490513,0.342916128328,-1.84011699625,9.15391589847,6.81872997946,0.147888904823,-3.97233202822,-0.606669845185,-4.39222406788,-4.92626457516,-193.813995413
off_to_on,4.64268407804,3.20433093084,3.59511674004,-0.924459220386,1.07360047276,2.45068498015,6.41633357693,5.73787616544,0.054721894394,-0.883750523405,-1.83345542989,-2.64383820401,-2.09755254186,-168.762007297
off_to_on,6.76965353256,2.8045793239,5.61522867073,-1.41650172203,0.414757503806,5.33277074471,-3.00052338223,-1.01099062746,-0.066240910439,3.55574873571,-2.16845905114,1.58270439422,1.33154179158,18.4245343079
off_to_on,1.55423643098,0.472467613742,2.23948655355,-0.232291283062,-2.74291045492,3.08583146702,-9.02041276516,-6.50071806394,-0.186322496691,3.90048278168,-1.04406244602,3.61540863667,2.33254285665,163.886562942
off_to_on,-4.27842834658,-1.27076442841,-2.48406926584,0.864679377228,-4.95654509477,-2.38036935876,-5.08782865018,-4.83657443388,-0.216559788484,0.461231593569,0.827006226653,2.00672174604,1.68789939412,127.723897587
off_to_on,-3.92909332544,-1.28917554756,-3.5056862031,0.633425401903,-2.69702958385,-5.66093299629,2.33644443288,0.760658184126,-0.10594255777,-2.66786129528,1.70496346272,-1.0416374726,1.07428710072,4.6440768814
off_to_on,0.119575653556,-0.86024554919,-1.33971280741,-0.258544427036,2.37356393446,-3.94141751182,3.57981341429,3.02259850531,0.0677784903579,-3.4378208389,1.13505150941,-2.93708963372,0.208391909269,-42.3958244969
off_to_on,1.05437640591,-1.36530768927,-0.132039887286,-0.628594190494,5.21390451692,0.518314825026,0.04556203375,1.0550815724,0.173508445528,-2.5888985616,0.542013970145,-2.69263724742,-1.58459839952,-21.8149133897
off_to_on,-1.40958444766,-1.99178985815,-0.896355754707,-0.289434931692,3.65273018934,3.62130787159,0.0116996527206,-0.221933738483,0.167459948982,-0.832647911928,0.623359264538,-0.819453029362,-3.04767398011,-49.4678413718
off_to_on,-1.443507799,-0.738814388547,-0.58683689502,0.240612483884,0.262777118002,3.55117843567,3.62351799167,0.823650393634,0.101497341124,1.65293202567,-0.0337668878063,1.40628638664,-2.16240333197,-107.784183244
off_to_on,2.70227462521,2.54373797844,2.2061639392,0.563794781453,-1.82961995547,1.39113316742,2.98580950712,1.04846950829,0.0198614956378,3.96173226421,-2.1258783894,2.97666557504,1.09759753729,-55.4610818109
off_to_on,5.40679006789,5.07146357635,4.36508894159,0.460069128898,-2.35679837771,-0.889553689349,-3.01356642301,-0.237813161437,-0.0751217832292,4.72733364271,-3.19707397184,3.67459355904,4.25182980896,108.716595975
off_to_on,2.10148802474,3.67506870162,2.51678881262,-0.115479952909,-2.39840507398,-2.04429302192,-5.58942732904,-0.187567674566,-0.157627861962,2.99333401711,-0.68654658567,2.92294334153,4.24545055412,181.940262491
off_to_on,-3.96898873754,-1.49290109544,-2.15170827578,-0.652472460444,-1.83782135844,-1.82873163803,-0.962180209876,0.463774480575,-0.162205050759,-1.60642640653,3.43847203469,-0.76581427081,0.0834396148691,46.5102557713
off_to_on,-6.17865125053,-6.15995527564,-5.15221660604,-0.419692929354,-0.0910755781267,-0.754060672877,2.70197468423,-2.43889126947,-0.0680629213702,-7.3923032153,4.24665795265,-6.6777091371,-5.27708912735,-131.532018346
off_to_on,-2.63102175561,-5.65542425394,-3.67663632592,0.384464068156,1.93314974547,0.355795165487,-0.500989905811,-6.51547892896,0.0546922947594,-9.14712142091,0.423324825583,-9.15148150506,-6.26684656035,-130.522192701
off_to_on,2.782218505,0.0062566622601,0.864928259651,0.595882513645,2.54799520612,0.986605071061,-3.17820052683,-2.6063177489,0.122074486759,-2.36837624806,-3.60567844288,-2.67488222636,-0.491792481163,10.8870000085
off_to_on,5.34488446722,5.39273829357,4.47002558452,-0.227157359802,1.59012718992,1.12873352662,2.57162010854,9.49386023022,0.121628340588,8.75434446113,-3.40869732968,8.85444733002,6.68142039271,76.7477941377
off_to_on,3.29755676567,5.12932922219,3.94645590508,-0.902701050578,0.441076202786,0.809072472091,9.33249756422,14.5360473407,0.087269483326,12.46482556,-0.0143339772212,13.1640999448,6.78100591865,9.55193816354
off_to_on,-1.6063040356,-0.0789942827038,-0.33178169169,-0.271641159414,-0.194915785313,-0.0932236854026,4.32723060189,1.59752999489,0.0308947083063,3.31125503165,2.26719158969,4.04354944113,-1.05315281625,-35.4141572258
off_to_on,-5.16424266708,-4.257467271,-4.28550635664,0.944911024603,-1.03107378783,-1.22320454122,-8.72774396593,-16.3199669416,-0.0492533289173,-8.83480883467,1.67086660203,-9.09618049019,-7.66542396825,26.5029131414
off_to_on,-3.7693698137,-3.17418514372,-3.76617320934,1.07798207725,-2.31928131783,-1.51652798912,-12.4387248191,-16.4752725661,-0.117824248635,-10.0528840118,0.148956724624,-11.8029347637,-5.14272497839,73.5924566243
off_to_on,1.53130300709,1.10444616116,0.801266054596,-0.0698594787643,-2.63137855126,-0.334042868141,-1.38448531725,1.90730439041,-0.121017795573,-0.451619119673,-0.354826928071,-2.5515866233,2.83668268876,0.524326089492
off_to_on,5.23875934512,3.51508624601,4.46950773298,-1.00084188312,-0.664890422239,1.41818885439,9.39580623775,15.537954908,-0.0567763651205,6.75274659663,-0.146949903725,6.51395109952,6.38156116396,-92.8388133301
off_to_on,3.58151998867,2.15565726431,3.44107293879,-0.708232752334,2.3640969234,2.06393473458,6.90316312823,9.52595551513,0.0197933473932,3.96371174951,-0.201999981008,6.36501055643,2.74606388988,-63.7133477024
off_to_on,-0.915303949965,-0.649993968586,-0.567740665261,0.13904997042,3.50434836417,0.998632998794,-1.70052615638,-3.52418946996,0.0659211067062,-1.88810099669,-0.52605974608,1.04401166547,-1.65467339865,40.7607335789
off_to_on,-3.22392701239,-2.33569648763,-3.06557693226,0.490016926549,1.52396577916,-0.866760218893,-2.83537966652,-5.20900668842,0.0848785446055,-2.0520599293,-0.739519827945,-1.45073291365,-2.06011761146,66.7201085833
off_to_on,-2.47309149823,-2.61888745225,-2.55859971239,0.284342784992,-1.39523141982,-2.29787043634,1.90696011473,1.52422156166,0.0843630262624,1.08198013489,-0.749834753999,-0.892408112371,-1.30040007414,0.718013305586
off_to_on,-1.58015103869,-1.98377050268,-1.25213081645,0.00293360429895,-2.1871587328,-2.52087374502,1.0515337706,1.07628278438,0.0490648263073,0.257192466408,-0.266071371991,-1.87397849075,-2.70176249723,-30.4630841875
off_to_on,-1.39489672631,-0.16316671015,-0.654495846136,-0.219719504833,-0.597705158578,-1.05761609108,-5.62477883156,-7.39359689309,-0.0209851897098,-3.5496615533,1.00504866637,-4.00575180939,-3.39066598912,15.6275729714
off_to_on,0.413438438137,2.56878606797,0.453744429831,-0.34593908808,0.774814457741,1.81189904781,-6.3665291097,-8.8977301542,-0.0816676813244,-3.02481630238,2.16655881565,-2.39641072338,0.477759671262,37.8205786683
off_to_on,4.06958060197,4.22256727908,2.85786852813,-0.0546545297498,0.174593955885,4.10365723933,2.27698297874,2.10856581994,-0.0886461559307,2.90118544847,1.60251137488,3.35791772108,5.94219377137,-18.8316680493
off_to_on,5.58927555272,2.97738005454,4.39272705227,0.602969682453,-0.989236121714,3.26573025614,8.73191770845,12.1260580921,-0.0503336057394,6.87441615158,-0.608280843363,7.17253899265,6.52916305908,-64.593439728
off_to_on,2.18766334027,-0.351371462196,2.56724363088,0.776579705918,-0.508926358644,-0.620788117481,4.39248657216,9.03567703512,-0.00805671315845,3.95381400602,-2.21294680643,4.49818278233,1.46797346824,-21.7971075962
off_to_on,-3.2478766847,-3.09819806888,-1.69885845401,-0.0727838978669,1.07162276735,-4.00936407994,-3.55584264899,-1.25935802322,0.0209083704127,-2.30989270401,-1.7326925778,-2.12652806681,-3.79609900298,42.8959155101
off_to_on,-5.75193890536,-3.68849575803,-4.89991046539,-1.08368441369,1.22233119148,-3.74011523672,-4.59243605662,-6.3230176323,0.0492062821962,-6.14326159118,-0.430614580808,-6.82833490415,-5.48390732767,34.7695206819
off_to_on,-4.21418887295,-2.62950724857,-4.82556501746,-0.978730352401,-0.448916113734,-0.805671046249,-0.650654272044,-4.88853414581,0.0758637075531,-6.00935906258,0.0139072949673,-6.38772792187,-4.61579692738,-13.4010800553
off_to_on,-1.08806836747,-0.885986052363,-2.06535601072,0.125679515181,-1.21788344182,1.44191265589,0.0923642243501,-3.37688957354,0.0703197148676,-2.81867146781,0.255794809786,-1.61459023348,-2.3969641508,-10.6488567483
off_to_on,1.8919147645,1.23736337566,1.64367973695,0.89356989828,0.551163762021,1.9303110175,-1.71041755579,-2.41508292647,0.0118011612942,2.67436713159,1.61299946842,4.04050673786,1.76946180055,30.6770947712
off_to_on,4.3952489503,3.27003149303,4.65520605036,0.657259214821,2.34178361946,2.18714509883,0.640536596227,1.68892508147,-0.0690397018479,7.61588432753,2.81253775319,6.29156848549,6.20326760329,22.9932425202
off_to_on,5.04210716202,3.93332745752,5.23548555523,0.0894825189145,0.850160838965,2.34939734099,5.44138535826,6.1760121645,-0.102526161657,7.10855436596,1.33070736059,3.47333223665,6.34377175761,-36.7460848966
off_to_on,2.1415446122,2.30054669804,2.37112507333,-0.114635916488,-2.76821713056,0.335587984773,3.67312898948,4.43198115041,-0.0466309667306,0.573586037648,-2.11761668827,-0.892451097102,1.24119584144,-57.1742907595
off_to_on,-2.70970267823,-0.799398683891,-2.35419830166,-0.157001204237,-3.87627783312,-3.63809697804,-4.70387391779,-1.58627846316,0.0510817585676,-5.56244584396,-3.55813308796,-1.96859460326,-3.65379100038,-5.55134313371
off_to_on,-5.02287153419,-3.2336117512,-5.15904006649,-0.355351503497,-0.66828525781,-5.06971219359,-7.82295400912,-2.79130826964,0.0799999798421,-5.57939134964,-1.2579446341,-0.435979084717,-3.73529468916,41.1613608134
off_to_on,-2.74994564357,-3.45607532707,-3.6739468309,-0.40535208506,3.2401278573,-0.865503507934,0.0721278601824,1.86371875186,-0.00638182770038,-1.75688989399,1.55844262602,-1.29070446437,-1.5472986,25.8417345349
off_to_on,1.00483622354,-1.78224481809,0.32647651262,-0.0420171339366,3.64106870104,4.96987389104,8.21322509401,2.6835757087,-0.101633341226,0.207585330315,1.39481972187,-4.84796427332,-1.6600365808,-6.84238947299
off_to_on,2.03143338566,0.123206650102,2.75983368861,0.301797440262,0.900380741381,5.38037068833,4.78103310184,-4.37842351287,-0.0545049062887,-0.0733610627021,-0.474758305049,-4.65205296807,-2.67657320301,-3.47548678678
off_to_on,0.121676603354,0.979483400379,1.69455279988,0.188771995701,-1.48748843859,-0.334068957311,-5.06483092504,-9.1205306842,0.11394553314,1.10847270997,-0.435462270907,2.26072242584,-0.0423117056655,9.88565870233
off_to_on,-1.38160663212,1.13520453941,-0.729871605354,-0.0545891977664,-1.81222818698,-5.2072260613,-6.97452111133,-2.26726629755,0.190567109464,3.73833615263,1.55321488808,8.59070497395,5.07259539615,-4.91080773308
off_to_on,-0.105549901385,1.78507841179,-1.0512655013,0.0359178681611,-1.22844470574,-3.75883498229,1.02621025532,8.85108956402,0.0408512210396,3.75246931248,2.01029616572,6.14144912486,6.2572915866,-16.1430325294
off_to_on,2.68604497819,2.79569916041,1.25846591806,0.204197775728,-0.775533982824,1.23997513976,6.40374052516,9.78541919343,-0.177848485986,0.277700105461,-0.323794330021,-1.96810734021,1.5156642642,11.9543268267
off_to_on,3.63747266554,2.19999998546,2.98257056662,0.0283821705711,-0.00779092516696,3.47291331335,1.62416402153,-0.217998766014,-0.199458327633,-2.677168856,-2.41235607088,-5.7136030236,-3.60013558486,28.1712796137
off_to_on,0.907250785167,-1.05310687314,1.1227050624,-0.163973750441,1.1494003377,1.57352545275,-5.29768859954,-7.61134155617,-0.00997503193427,-2.65524762621,-1.68424738567,-2.63423734469,-4.19207895039,-29.9788721117
off_to_on,-3.46511703321,-4.49985111965,-2.84396352856,0.107692922025,1.50262474739,-0.584298546001,-3.94116727057,-4.08002863944,0.134595483134,-1.63925127341,0.234199717019,0.325541764031,-2.00446470439,-98.3392994105
off_to_on,-5.01670641683,-4.28501290505,-4.20509445189,0.351834791795,0.527043497006,-0.47839715191,3.38279862387,3.34391648013,0.0742543477144,-1.18615050939,0.589418930348,-0.722557227933,-0.639779860447,-43.0868023882
off_to_on,-1.76054688199,-0.233874078137,-1.05045534471,-0.240529549692,-0.486458641232,0.242022052156,6.38596610061,4.19799525114,-0.0444581336247,0.136543604218,-0.112769068667,-1.26680244281,0.233822130131,124.339142609
off_to_on,2.76496002771,3.26721296656,2.77300034486,-1.13968090872,-0.39162174144,-0.369289196346,1.63837213426,-1.47895228272,-0.0214287185786,2.40206135353,0.403979307952,1.89289150436,2.0770139399,202.397080677
off_to_on,3.33246329824,2.68610579609,2.571532816,-0.838151730453,0.0345183304358,-1.46238224524,-4.53510932587,-5.70961780741,0.085951207787,2.5203482499,1.78430289345,4.07900513688,2.96660031171,46.1634371647
off_to_on,-0.114600876713,-0.201564932932,-0.757647037679,0.81411204436,-0.384689230131,-1.45379915365,-5.82141400108,-3.72947832234,0.0758542017057,-0.256859693981,1.43031652652,1.0942954239,0.727800649794,-207.655520706
off_to_on,-2.28309832294,-1.23232599253,-2.15608433892,1.94143414649,-1.02453510383,-0.523827323114,-2.26613884956,2.23145267626,-0.0614305626975,-1.79945489605,-0.945775239757,-2.73558391471,-2.12837309692,-267.799114339
off_to_on,-0.0944873719793,0.276639190704,0.175018067082,1.0564840118,-0.479552289522,0.553783560727,2.55718963631,7.01922806542,-0.129506785323,0.235903332817,-2.36271442298,-1.68167203825,-1.67987697745,-40.5303087618
off_to_on,2.97905634511,1.39992830289,2.50177578738,-0.874028115228,0.847068950151,1.93029288099,5.3464095676,6.44258472647,-0.0419727000014,1.83906079743,-1.01244903022,1.48167137555,0.920896524461,235.666660989
off_to_on,2.44351966075,0.654355012815,1.66993016807,-1.74107016972,1.11337872248,3.19444252042,3.87010399136,-0.1588774797,0.0533863684752,-0.513451267084,1.01679857222,0.63812338841,1.41258698575,259.27616687
off_to_on,-0.622353476447,-0.274213100059,-0.403875367607,-0.947006148418,0.00335289270609,2.32246931641,-1.21879044289,-7.59652130675,0.0281743920547,-2.90451123539,1.02574786711,-2.3759097443,-0.274599617695,19.6162454415
off_to_on,-2.2340630834,-0.370992219537,-0.854113680341,0.304330243067,-0.617203303428,-1.41349538833,-4.77719698921,-7.86718688257,-0.0298714204961,-0.288850582005,-0.35840115239,-0.924395011435,-0.43330639501,-199.301755082
off_to_on,-2.17898541665,-1.25152123357,-0.946435349449,0.873902609842,0.318182284418,-4.83201063018,-2.11157795579,0.344618139685,0.00942209767453,3.68318810834,-0.641927990343,3.65049201999,0.932002604958,-169.477159264
off_to_on,-2.95420817243,-3.38383890986,-2.93622818453,0.703616866265,1.16104038537,-4.07581823,3.42775981456,7.71327520029,0.0887784185626,1.38876779494,0.466584680314,2.77788386859,-0.422949124557,18.4225236813
off_to_on,-3.36706394193,-3.5340193364,-4.30575695386,0.190391836433,-0.00766925351273,0.0334720120975,3.11765514365,4.92125377258,0.0651979665633,-5.43550316431,0.925331058681,-4.45786393693,-4.44552028484,109.026179981
off_to_on,0.544943322429,0.77762691345,-0.622665731226,-0.324436783096,-2.12772819877,2.88609123919,-4.35409844107,-4.38453863352,-0.0435498580936,-6.28312935338,-0.0734998534271,-7.46658629041,-4.4257126805,29.7174661152
off_to_on,7.33894479142,6.24581999985,6.28584997062,-0.411696862571,-2.21020394036,2.4388574547,-8.473788162,-7.49793737069,-0.0877790632919,2.38790470106,-0.830938893801,0.166994731515,2.83886610568,-47.4102234038
off_to_on,9.19711286989,6.99563368926,8.71315480531,0.0961725176209,0.493387145272,1.36936616708,-0.654033597641,0.225186374076,-0.0293493283425,10.5207575246,-0.011462163979,9.71157498224,9.91068311939,6.79796800708
off_to_on,2.2657828989,2.10272809505,3.13790690415,0.50594076851,3.08948446271,1.81952957665,11.6583180925,8.75959492045,0.0148319199503,7.86079423833,1.12220451735,8.93593087122,7.46024409611,85.220199874
off_to_on,-6.9711394356,-3.67794825818,-4.89755872624,-0.011114965637,2.52702846644,1.54962969561,12.5328331961,6.87849162612,-0.0155904661321,-2.64790520833,0.572932436505,-1.24037191679,-2.95064772645,33.2432307923
off_to_on,-9.71874355996,-6.37436006164,-8.25638024038,-0.951083936935,-0.603358186463,-1.85692222838,-1.14467530902,-3.11903069365,-0.0319616239924,-10.1185909184,-1.36660388502,-9.35672174924,-10.6330692243,-90.360821586
off_to_on,-5.35892481724,-6.03992458464,-6.13680288053,-0.848439946238,-2.83862641475,-5.56384554821,-14.0908609581,-9.2290324976,0.0302218991407,-9.15279385895,-2.32684019057,-8.70543975504,-8.83498286757,-101.405370374
off_to_on,0.543318932876,-3.33110489166,-1.64747810569,0.510323295607,-2.00450455438,-4.43257127644,-11.7609269361,-5.43447384667,0.0877947576385,-2.42484755261,-0.855507850921,-2.35014869408,-0.789403812167,15.3812908611
off_to_on,4.90053098629,2.18307704699,3.75779639064,1.4370209931,0.507868848089,1.27623627963,1.46312638662,2.25139718725,0.0494328271619,5.50121545197,1.79659208089,4.39593978563,6.39086239934,84.2357841882
off_to_on,7.73668687621,8.13272443093,8.62085958579,0.657694486259,1.82417926393,5.38095616729,9.44707870154,5.30911035853,-0.0304344686777,10.3188209511,3.06411288692,8.38877947075,8.48483349775,21.3387743099
off_to_on,6.91222150299,8.57277807548,8.26717662594,-0.786222526266,1.0055174517,3.86265661513,5.69760022798,2.94202538318,-0.0461516845819,7.58859350869,1.74748475351,6.80734528393,4.87668609462,-43.7309175528
off_to_on,0.046219226009,1.41034339991,0.162844213341,-1.04071030257,-0.395339373276,-0.230660894019,-0.79836651981,0.306507635911,-0.0109641326429,-2.12670147883,-0.907107936077,-0.754043245815,-2.00458494745,0.977029360357
off_to_on,-8.28567607935,-6.55791273075,-9.08467112177,-0.0496783060915,-0.756010046704,-1.92363781392,-1.03758319203,0.000461607709482,-0.0123966916316,-9.69663493456,-2.60654924707,-7.84434537314,-6.70618474557,63.7817736162
off_to_on,-9.09289069131,-7.15481812952,-9.43193568896,0.655430102216,-0.230463842131,-1.08425519959,1.67532819485,-0.40869080095,-0.0474114256257,-6.7755830791,-2.24575380326,-6.564554796,-4.90490531168,17.6508396269
off_to_on,-1.13774153683,-1.54699394142,-0.742227296523,0.328155548837,0.147782667198,-0.813680992031,-0.310872116591,-2.67872237399,-0.0318794417699,2.21547569774,-0.61036005188,1.18035939595,0.828925435952,-74.8185191057
off_to_on,6.08101041469,2.10339106078,6.39061051583,-0.258247523864,0.193473139329,-1.39610619032,-5.26576935914,-3.77438785219,0.0404198384612,5.50209734657,0.945993607759,5.26686679621,3.52865115395,-65.9304038527
off_to_on,5.06430707485,0.805853612796,4.98848909269,-0.372580993907,0.391889991239,-0.346789086015,-4.72499160368,-0.201850728486,0.0752857165876,0.931117368934,1.84371697991,1.91731975196,1.29381784908,27.7094202597
off_to_on,-0.0636829568939,-0.16083451008,-0.0195325808627,-0.223717947051,0.490823385811,2.00489517785,2.13326107979,5.27804403614,0.0313047982941,-2.05373040763,1.95509137881,-1.65589913217,-0.707082518531,58.2460127347
off_to_on,-1.53702840408,2.50810856784,-1.3182788401,-0.0573597196746,-0.331800398575,1.8473088641,5.90272487334,5.40330554968,-0.0177840291348,1.10959059166,0.864325327286,-0.306676136648,0.541190431115,-3.53901588869
off_to_on,0.149477724583,4.06893528041,-0.0946828543133,0.350541074503,-1.65295858113,-1.65484357178,1.14001415914,-1.79946984523,-0.0120282251023,2.81498731952,-1.30561258116,0.824918020911,0.975393541689,-32.8507240176
off_to_on,-0.552629576357,0.162963360298,-1.25578390195,0.813653926968,-1.54354775121,-3.50945304392,-4.66242143587,-8.45401579493,0.00397660285513,-2.19240318455,-2.75666769401,-2.61037683954,-2.20880607414,22.4582348214
off_to_on,-3.02697187717,-4.60834488474,-3.16541742785,0.523750409704,0.856353956952,0.186280443912,-2.07779063344,-5.73511283935,-0.0232572382155,-5.83678120421,-1.50740078838,-4.09568783795,-3.70042687716,55.1834635557
off_to_on,-1.4459061229,-3.20112389638,-0.61669883112,-0.579461528869,3.35430272912,5.41633567135,5.54750995879,4.23328179455,-0.0548196621301,0.125970104984,1.54810568101,2.69243362288,1.44722372934,-5.3861114803
off_to_on,3.81903077772,2.27330953463,4.41279925246,-1.24340633845,2.75598311164,4.82683411762,6.4892426648,10.0705277917,-0.0294880446516,8.17979392317,2.86030737833,9.64884071772,7.21992201675,-66.6866425594
off_to_on,4.90305423198,3.29746881841,4.1737169971,-0.572710540408,-1.09172708366,-1.93205770605,-1.94537820094,5.27556671353,0.0267141002039,5.10644970408,0.668033018187,4.2662863743,3.87196993862,-33.5222518838
off_to_on,-1.09900704284,-1.58702170671,-2.16547573585,0.582698768992,-4.51264805781,-7.17726746947,-9.09431570171,-3.99393254474,0.0441478122265,-6.23577317536,-2.27500224521,-9.01546446213,-6.04494717978,31.5117418283
off_to_on,-6.35173694651,-4.25984391427,-5.90847430644,0.872530706173,-3.82660243055,-5.18828877718,-6.00468268991,-7.62057063346,0.0219637147037,-9.57945840537,-2.17250771475,-12.1827853449,-9.26027163414,23.8907230375
off_to_on,-3.52387778624,0.0997105181439,-1.80247509551,0.332913962956,0.597872088003,1.03524925925,2.702130068,-3.87416351526,0.0127200257665,0.0134984316071,0.656357411563,-0.0893992183935,-0.967124044029,-23.3978460761
off_to_on,3.36473369537,5.18646835022,3.99147651675,-0.0772511539937,4.6142260363,4.93234553885,6.66157983246,0.968230741955,0.020236177902,8.43683114379,2.35733450223,10.8821808195,7.61993429469,-9.67578116232
off_to_on,5.29342296277,3.28319031026,3.66854496865,-0.169801247975,4.44380407015,4.53925330479,3.79674961191,2.41475712369,0.00040277292398,4.29131111033,0.969127228833,6.73881588189,5.6009950641,47.9180947701
off_to_on,1.14765334561,-2.92593970573,-0.763314788038,-0.406974756505,0.346223286298,2.30934262377,0.0579656469165,1.76855009459,-0.0431938168004,-4.51312239439,-1.23501234015,-4.29123168569,-2.39796840667,43.4466141192
off_to_on,-2.49117850839,-4.77302971873,-2.18728970998,-0.526084110329,-3.7339224639,-0.306123022746,-1.36380474775,1.21859196151,-0.051437797468,-4.6302847065,-1.43762669922,-6.0073827742,-4.74194243071,-29.3293213651
off_to_on,-2.09970660205,-0.606546101641,-0.0091759557759,0.12572688037,-4.13332798315,-3.5454306793,-2.71142599756,0.530482514802,-0.00957816626246,2.19286242499,-0.0128444654763,1.37671555156,-0.101392095247,-61.360972455
off_to_on,-0.609898512994,2.89989732291,0.552770188667,0.956164433798,-1.07531076494,-5.66199598168,-4.14237678329,-0.23827928022,0.0241119524384,4.18931408296,0.83670545731,4.49914091261,3.08959897805,-10.4520130279
off_to_on,-0.357780479147,1.73294605513,-1.43290423375,0.548234120532,1.96434780964,-3.45986852274,-1.67294212275,0.491694135432,0.014506380864,-0.669080994333,0.469699992124,-0.604009796231,1.12250259356,34.3443938732
off_to_on,0.449664909005,-0.386142099489,-1.32186125933,-0.918047325441,2.45142523078,2.4272374719,4.66611289547,2.10118035571,0.00193710066993,-3.08697395401,-0.0452161280678,-4.01376345789,-1.09415864555,8.39777481357
off_to_on,2.48758128085,0.315728582805,2.03458607431,-1.38735158493,1.34960503737,6.55971902202,7.34145177575,0.837262562566,0.0214574922631,0.675972652725,-0.189472002132,-0.133634903539,-0.440406404661,-27.2497469422
off_to_on,2.4310524817,1.23188244545,3.44984391961,0.0805488368925,0.769513596288,4.93364811125,1.11402820406,-4.27375005605,0.0364889142446,2.94812923361,-0.417268468089,3.41957187848,-0.35444242566,-3.3640572681
off_to_on,-1.39624749655,-1.32613367007,-0.0278564814167,1.60859772938,0.407328642467,-0.382804683115,-7.86653449483,-7.72815440773,0.00561643057432,-1.5051791313,-0.637048072489,-0.227351082838,-2.72048451178,38.0569413786
off_to_on,-4.78022913327,-4.72703176272,-3.88965183887,1.10385542389,-1.49672788329,-4.55710660154,-8.76781266261,-3.7859969532,-0.0378478321793,-6.20110555498,-0.106608559564,-5.31062457474,-3.15523460383,25.2321106906
off_to_on,-2.98382038835,-3.25617062262,-3.05229609413,-0.673393690097,-4.01007067582,-5.35729615215,-0.151160250299,5.1745983237,-0.0365981790882,-3.16524507006,0.963803963501,-2.95515995736,1.2100668943,-17.4456832673
off_to_on,2.31165871075,2.94834769013,0.804873546075,-1.32047456347,-3.35502939916,-3.19020884643,8.32978653842,10.4752690954,-0.0026110585602,4.7984845697,1.23394272738,4.6755602162,5.59581992125,-20.4833518249
off_to_on,5.2407025906,7.23299184045,2.84028196581,-0.30305571969,1.62186799799,1.30363236868,8.26954832481,7.04542403974,0.00828051508435,8.58751024935,0.163761808978,7.99299609902,4.54586046589,4.92020681547
off_to_on,3.30111857466,4.94317668602,2.22502602588,0.637000854072,6.25196076895,6.23321420334,1.49654874825,-1.50209824201,-0.00780571623174,5.02320091135,-1.04839175425,3.67108579232,0.214012459633,-4.19467047638
off_to_on,-0.776757337458,-1.29884734626,1.23735519959,0.364982594942,5.05157205723,7.10425325509,-4.48089410313,-7.67479001744,-0.004116932861,-1.53420081717,-1.08544506985,-2.8856800254,-2.06157693465,-35.8327976231
off_to_on,-3.56516252862,-5.80942518305,0.0783146407633,-0.260140771221,-1.12698579099,1.17109345759,-5.60922331774,-7.39109494098,0.0266781310549,-6.63413571893,-0.200204731561,-6.53354237201,-2.52130872109,-16.1710238119
off_to_on,-3.92150279557,-6.08358949054,-2.35274588386,-0.214268622425,-5.8390042216,-6.99149638646,-3.3476422479,-2.36056463633,0.0361320218943,-8.63189219795,0.389204238068,-6.77165871177,-4.55267204062,49.8183819227
off_to_on,-2.00206535446,-3.19954409972,-4.15909414517,0.164307593663,-4.85402360407,-8.81072901316,-0.606926509558,2.4608545238,0.00452574017259,-6.00354574854,0.199992980622,-3.95669403369,-6.08692177957,62.1185103156
off_to_on,1.2772204691,1.17380971888,-2.16937899696,0.207805241485,-0.450031630281,-2.04796663556,1.17086293295,3.32940019086,-0.0241871662409,1.71027726037,-0.0999396256932,2.04045262297,-1.49781766862,-15.9734647386
off_to_on,3.54552492767,5.37253584305,2.32659042414,0.121079932287,2.68972623801,5.83870256551,1.92299577049,1.15234727431,-0.0162143334128,9.86641778023,0.238079718977,8.25819735482,7.66277082468,-81.2926471472
off_to_on,2.70324227508,6.77476927111,4.33039722372,0.222674383674,3.07448150894,6.80804879104,2.25466672725,0.280526484009,0.000504727137539,11.0308728501,0.989130765452,9.15715238638,11.57672728,-35.3477680625
off_to_on,-0.0136755041453,3.49267658254,2.14220439201,0.073771580579,2.23533149374,1.65236453902,2.67141943192,2.56978713642,-0.00740510518773,3.3810600268,1.04472584228,3.08823673254,4.7962890701,67.1070144567
off_to_on,-1.1990825807,-2.52274921484,-0.669904628885,-0.579856676483,1.16543752565,-2.59048939684,2.61028594185,4.13863287103,-0.0196897682575,-6.33542416048,-0.292762799064,-4.92482495784,-5.78726160843,92.309534258
off_to_on,-0.118274365871,-6.29908503125,-1.22292931521,-0.875071352281,-0.469561433112,-2.2741612426,0.895466237644,0.761164834967,-0.00333105758461,-9.88823928446,-1.99579087091,-8.53465076269,-9.65315109269,7.06771014611
off_to_on,0.280567209353,-4.92657276409,-0.96615191919,-0.0431903452296,-2.37030719525,-0.319127774512,-2.30701552319,-5.05252850276,0.0246175855125,-5.61687657,-1.95729286747,-6.01463108767,-5.25175486174,-93.271304669
do_nothing,-1.7177458396,-0.623561851252,-1.67023797198,1.06482446493,-3.19654059105,-0.453112808748,-5.07269837969,-6.70877745557,0.024676571748,1.36980120645,0.300956625978,-0.32502081062,0.553614370986,-112.500274538
do_nothing,-3.41462419033,2.3061729616,-1.84833632602,0.965576067547,-2.22135363375,-2.08240021933,-5.66744579982,-2.84860085526,0.00148705492727,4.99232076067,2.3120836493,4.17251340018,2.74632076832,-38.7895803484
do_nothing,-1.52773787352,2.49894115227,0.0565803814078,-0.263416420323,0.0405725127434,-1.99726665262,-3.55464670325,1.20674757841,-0.00780744966363,3.39721662028,1.53135692169,4.58905153514,2.63709555459,78.0903094712
do_nothing,2.72728297736,1.9568352251,2.13183940497,-1.06701610248,2.64151543622,1.02671756207,1.40366630821,2.19961235315,0.00180053620371,-0.0731906967726,-0.918606247101,1.7064498709,2.89806272039,159.341502081
do_nothing,4.91261596478,2.02722379277,1.9032376989,-0.613267732468,4.26936245164,4.59478271164,7.95097426105,3.11197554695,0.000738944793131,-0.690001076466,-1.50771906844,-0.368026967292,3.02792658329,120.927733327
do_nothing,2.85479237248,1.29233894033,0.408790360056,0.32473457578,3.13113877182,4.85891611102,11.131828712,5.74998137694,-0.0166157837145,1.86052007008,0.479559673953,0.758326130885,1.19765989789,-43.9804129424
do_nothing,-1.29778066586,-1.49291104791,0.0179322928153,0.780840638,-1.0528930502,0.298472316424,5.42323941004,5.37898281057,-0.0205978873829,2.5834358178,1.64965983674,1.72249851095,-2.18657803259,-198.102232499
do_nothing,-4.03233770713,-4.18089041001,0.147131628043,0.664036537541,-4.98564117638,-5.67459561911,-6.76752376199,-1.56107774351,-0.000362658471528,-1.7093078754,-0.240931178039,-1.70551211709,-4.50600314649,-172.885507818
do_nothing,-3.60517329154,-3.30420990835,-1.10721495421,0.145722436603,-4.35858698543,-6.76795932208,-13.8562998825,-8.97409344817,0.0157540616494,-6.25417466653,-2.43772894472,-6.38313678443,-3.60645687954,17.1627881176
do_nothing,-0.579660315635,0.919448134837,-2.48651172634,-0.760348449025,0.544150549784,-0.706814621955,-7.77545757168,-7.90617121058,0.0088734710597,-3.90658044582,-1.28615007972,-4.57024882001,0.071802714252,165.350214496
do_nothing,2.79911844563,4.05486595782,-1.04156734639,-1.45610637713,4.20968122166,6.45358973898,4.47864220433,0.229730264221,-0.000847627486196,3.69772127577,1.81264387122,3.70142521306,3.46176084196,130.350524136
do_nothing,3.71277265415,2.82077344817,2.26809098618,-0.821816360573,2.5897823166,6.23101512217,8.67581671453,5.20663901727,0.00626284932791,6.75188826151,2.31234550419,8.16780217862,3.37101834431,7.15528025865
do_nothing,1.09547578441,-0.891975487089,2.89892043474,1.06245622047,-1.59871950615,-1.43722158111,2.06831298402,2.73096021537,0.0143817742396,0.960124566008,-0.340646765738,2.46018050558,-0.0101354254298,-40.8214966135
do_nothing,-2.65910485641,-2.87258736014,-0.472609937971,2.24709021377,-2.69969604189,-7.05436890747,-3.61412222843,-0.520609603097,0.00222953943942,-5.71246350354,-1.81288498155,-5.80693518806,-2.80141565629,-21.8784926834
do_nothing,-3.70092700801,-1.90641509224,-3.44611665182,1.15637418421,0.218183543769,-3.49183696411,0.158652960525,1.27025969468,-0.0188030428957,-4.29995073966,0.0717604080762,-5.67763349084,-1.90755795021,-51.2960834917
do_nothing,-0.932520983414,-0.052059055419,-1.98025122057,-1.12518856666,2.7080512418,4.48797757765,6.48141548083,4.13912735749,-0.0235437673823,2.57304235034,1.74827513294,1.47634378351,1.16440100928,-110.375338539
do_nothing,2.83645999749,1.31527331315,2.18935133433,-2.08322677668,1.60397563995,6.60357193723,4.27220472079,1.97797661048,-0.00929251201844,5.66441356312,-0.127910746686,5.38114622371,2.69653568964,-57.2696928561
do_nothing,4.13153521194,2.63327799383,4.34594925089,-0.961612351974,-1.11677199805,0.677006747895,-4.76657509484,-3.20451266717,0.0107304733825,2.75304813852,-2.77555874688,2.75914102345,1.76210061515,108.528800047
do_nothing,2.0326573403,3.20716093427,2.52621676449,0.58674828459,-2.11822668875,-5.32476892969,-9.1560939648,-5.0943080295,0.0281472606219,-0.582233684562,-1.40724034823,-0.220986468915,0.217416628811,183.083514155
do_nothing,-1.83597287792,0.712529352609,-1.58053830398,0.980291701035,-1.31741592443,-4.6516900781,-4.58615054912,-3.03739438604,0.0293307757893,-1.86565441163,2.81650974235,-0.679326458405,-1.29677461845,48.2190870762
do_nothing,-4.82923397964,-4.42393163904,-5.120817385,0.478094177293,-0.619549378184,0.228056664011,1.6338323198,-1.24289893309,-0.00620806119479,-4.21908481271,3.84127443754,-3.0238638848,-3.5597369692,-129.90433353
do_nothing,-4.46851966402,-7.02600399401,-5.32113140796,0.117249114537,-0.204680072476,2.93377859644,3.26375533708,-0.426281297014,-0.0606987299767,-7.06992565273,-0.335932494892,-7.4803596102,-4.92108406731,-129.536452708
do_nothing,-0.224206389543,-2.91186064123,-0.778412397957,0.0990077144792,1.10375349661,1.96386461037,3.0425573687,2.39220592888,-0.0621532713721,-3.90049752654,-4.4299113848,-5.72379749553,-1.81944623048,10.743826752
do_nothing,4.77213873911,4.6667511426,5.64069086737,-0.0134276895705,2.70734106765,0.5430853179,4.69229404318,6.2592448677,0.0277177042082,6.28092250579,-3.2293074516,5.31451801803,4.94124038942,75.4854848027
do_nothing,5.73355395373,7.97328658985,7.49108149832,-0.279177416323,2.38721160594,0.451694637893,5.01528697279,5.79037519585,0.124612242527,13.1101109483,1.47963943375,14.1763046649,8.58189883098,7.8901601696
do_nothing,1.61073833423,4.14123014976,1.98840019668,-0.389317553537,-0.179537203626,0.298682613811,-0.0247919201384,-0.116422346971,0.0964440527541,7.50317098003,4.03600951342,8.91272789085,4.44170172439,-36.5723293485
do_nothing,-3.08241455914,-1.87715812664,-5.08798284881,-0.284315964655,-2.43983530746,-0.868851989436,-6.60289745855,-5.30817932108,-0.0568926051838,-4.9439895841,2.4179612115,-5.15694791791,-3.24389699073,26.2558252669
do_nothing,-3.71026684187,-4.43433781069,-5.86857804581,-0.118320206377,-2.35828823572,-1.91555946378,-7.47286493083,-4.93074988402,-0.171978107415,-10.8666550683,-0.580252262221,-12.0671213984,-6.62461221833,74.1251199042
do_nothing,-1.19428791591,-3.58815443304,-0.683619081698,0.104996258777,-0.959293635801,-1.80019303507,-2.53610978631,-1.85234347473,-0.115036665446,-6.46911475489,-2.23584693429,-6.73228484124,-4.19480982739,1.54791323073
do_nothing,0.254541874197,-2.34794190888,2.93872244238,0.359258465143,-0.278835260725,-0.716522306245,1.73716416909,-0.993027782625,0.0497367070248,0.0311818062672,-2.44581603257,0.850777946667,-0.947567631687,-91.6519492629
do_nothing,-0.350207266646,-0.99278027656,1.30246682399,0.366680461936,-0.219345019593,1.07524679931,2.39226202952,-1.49627156551,0.146659554203,2.05020449541,-1.6320699509,2.48604845496,0.137770004397,-62.8424388729
do_nothing,-0.157472848928,1.95498627421,-1.16648389364,0.0292391515537,0.833527301291,3.04214257382,2.78448473898,0.811686070407,0.104115039301,2.09028492767,0.46612357133,1.69061899033,1.28132351387,40.8679955923
do_nothing,1.87466392975,4.87552802177,-0.173604560399,-0.222875547351,2.8648156224,3.09427522142,4.71098664486,5.66318935383,0.00720245104395,3.94692358291,2.88781581624,3.69347478965,3.94675838507,66.0517771397
do_nothing,2.84872122091,3.91956384435,1.80015275173,-0.0282075383886,3.53780035141,-0.308387401068,4.40110785445,7.83089168897,-0.0479233508441,5.27675336927,3.06880819432,5.49650848062,5.04094776936,-0.287417294319
do_nothing,0.813723702886,-0.847389798412,0.834357301359,0.258065089796,1.12426727513,-4.27210828258,-0.683812663774,3.86825177096,-0.0615204826775,2.3014683043,0.200625763084,2.18063881834,1.79949174684,-31.3482661174
do_nothing,-1.77708472835,-4.24907802281,-1.2670125941,0.081305367863,-2.91825452885,-3.51771819261,-6.13793785923,-3.8484100041,-0.0697244615962,-3.10448469282,-2.76114614674,-3.61517903852,-3.16653186273,15.0847413671
do_nothing,-1.88476298181,-2.69758008193,-0.509328186377,-0.403624175565,-5.09301712441,1.89533918236,-6.07525241892,-9.56288064706,-0.0583161965765,-5.8222004217,-2.48456698418,-5.5748756083,-5.0135909293,37.7668185897
do_nothing,-0.423755522752,0.999346415093,1.68145917565,-0.567269067306,-3.38958915387,4.82765373352,-1.38994082486,-8.70620058147,0.00193299788517,-4.23164641061,0.314583837284,-3.08240780197,-2.78733432882,-18.2553192201
do_nothing,-0.0764597883611,1.91156959389,0.592674563286,-0.259021449475,0.72505777103,0.540022146735,1.90796958077,-1.36402799695,0.0773764313924,-0.788876022018,1.89321458445,-0.412706612482,0.403458168198,-63.5392494699
do_nothing,-0.657313570391,-0.257742311428,-3.20898529553,0.139605887769,3.80615052971,-5.35912469228,1.27653331424,6.66112180378,0.0969932847238,2.0197017431,0.564012014112,0.676327631764,1.83327522321,-20.8424575348
do_nothing,-0.059267223328,-1.67186342604,-3.82295639102,0.461740302205,3.70076457897,-3.82182092512,0.266082654377,8.1716237745,0.0458145957252,3.12371538342,-1.33483223066,1.66602605927,1.31269416353,43.1790112272
do_nothing,1.46284241591,-0.312284958951,0.738689706275,0.789116806023,1.25648372963,4.19955921527,2.32023824213,2.71109911915,-0.020084701066,2.20716481629,-0.997219628661,2.56655991797,0.123180175383,34.3298523869
do_nothing,1.62494549568,1.77490800988,5.00654570904,0.799946893408,-1.03327936685,7.8401685431,5.46146427754,-1.95534689652,-0.0519190573068,0.492255607556,1.07616787183,2.06028799347,-0.0486610483083,-14.153367774
do_nothing,0.252870598695,2.02603958787,3.90720279392,-0.0024710097917,-1.65840542325,1.35130928346,4.81154923485,-0.175309511852,-0.0545897030384,0.296960846451,2.0525705446,1.01348070441,1.62880749841,-11.3127691148
do_nothing,-0.56055306512,0.396394876352,-0.566099220364,-1.20409589493,-1.09440961943,-7.24918962441,-1.16912961729,2.74236451204,-0.0471525455051,1.30705220649,0.616225944453,0.785899023082,3.10933303464,30.2626617326
do_nothing,-0.471913798652,-1.57312439337,-3.37639892688,-1.52372190171,-0.568537929089,-6.94836776163,-8.3229117394,-1.75338209332,-0.0236259777628,-0.0408566508398,-1.52640808955,-0.409966239821,0.758336413767,22.8815834355
do_nothing,-1.20835066972,-2.47172138135,-3.15158673574,-0.426283344583,-0.57529877376,1.25165464167,-10.3665079436,-10.5378128295,0.0215008071013,-4.35827273115,-1.97842831887,-4.05796245342,-4.81988727956,-36.5246854709
do_nothing,-2.24446510995,-1.30388371392,-1.490461151,1.003834934,-0.735753190731,6.40672972225,-4.68916249131,-10.4630412289,0.0609148486043,-5.93820465201,-0.495356847896,-6.0411670461,-6.92877736737,-56.7041765492
do_nothing,-0.502706858215,1.70993431515,0.972184069967,1.36947444099,-0.465914582207,3.04172249593,4.84345924905,2.71750242622,0.0605738315761,-0.517249960698,1.03497626783,-1.56110442825,-1.04905584737,-5.02271497176
do_nothing,3.71092094396,3.88761430914,3.62608839831,0.59223139219,0.555433716835,-2.50205845944,10.9757969326,15.6469120883,0.0240880152676,6.49566351583,1.06669164139,5.55901926019,7.01946206775,41.603397956
do_nothing,4.83066177911,2.04652940175,3.61811490485,-0.3351536147,2.04592759599,-2.55562303714,9.54748349544,13.6645593702,-0.0149818588652,6.22464847147,0.131212882513,6.43393484802,7.19825259239,26.1043133071
do_nothing,-0.298210014584,-2.9124192201,-0.623285802609,-0.708562144254,2.86736726645,1.24753643052,2.71136198387,-0.275213796807,-0.0359251687041,-0.607492809675,-0.214695518299,0.565362074115,-0.918072144959,-6.92978715284
do_nothing,-6.25640198513,-5.63729457721,-5.00186208912,-0.543677490183,1.72885716956,2.05860352178,-4.3945347278,-10.7623747592,-0.042240794484,-4.55935671335,0.314270588462,-3.03054681298,-6.84098522917,-4.05865351489
do_nothing,-5.42066906046,-2.59995819919,-3.91501541197,-0.0725797733395,-1.19809049909,-1.34596574346,-8.61554284154,-10.1373498956,-0.037141521436,-1.80496583751,0.414763985701,-0.470490625464,-3.74304822338,9.01997943232
do_nothing,1.36856537149,3.05351172036,1.56046940009,0.400672635428,-3.78615199049,-3.46359415951,-9.1871694321,-4.40625363843,-0.0150269726532,1.04273128649,-0.620211378309,0.950356998455,2.61586267623,-5.4718416841
do_nothing,5.90116085178,5.41207539369,4.63390742611,0.394671233012,-3.84730954718,-0.907918125398,-5.40104921596,-0.277696812554,0.018905838473,-0.787795405219,-1.47257091075,-3.45598275701,3.66123885115,-15.971549311
do_nothing,3.93662122902,3.13795940099,2.37986099774,-0.207195015559,-1.36822904757,2.89476460637,2.44075757956,3.32485807789,0.0425770128734,-2.14696080989,-0.58990844281,-5.85139950292,0.423654563267,12.6543371361
do_nothing,-0.222848983236,-0.145344886888,-0.851578734868,-0.660675879932,1.71260239289,3.2051403142,9.96877871365,7.91226104022,0.040415728814,1.83101273994,1.24121375769,1.11157175095,-0.514026122234,28.7862600907
do_nothing,-1.64755539161,-1.87350087591,-1.11783250992,-0.204343698999,3.58949744822,0.326930045125,10.8736103559,8.75554051145,0.0197679577572,5.40252021904,1.6661110642,9.33765441279,1.00716733293,-29.8233982351
do_nothing,-1.53317284294,-3.01636969436,-0.555215684844,0.700170214658,3.64202518396,-1.96026969908,4.08505106591,2.09757990953,-0.00316939669597,1.22604175643,0.139403633582,5.94846080017,-0.403268654464,-98.4886326836
do_nothing,-2.7844835338,-4.08704466634,-2.08479545249,0.854645597188,1.86811629793,-1.87478574631,-4.09707948466,-6.57354687987,-0.0215705221341,-5.74745347759,-1.17568688921,-5.46442802476,-4.36407266343,-43.1717897179
do_nothing,-3.59208289503,-2.88058044818,-3.23066348048,0.0637923954932,-1.24030400325,-0.721591542589,-7.3904378535,-8.73489533165,-0.0339803245735,-4.68081693305,-0.613489640136,-8.76206636077,-3.84972964774,124.449448541
do_nothing,-0.567786213805,1.46066274329,-0.324527563342,-0.596740762921,-3.95514158785,0.21825610896,-6.36554903979,-4.30791328693,-0.0337931798236,3.10927569209,0.519788343696,-0.199517152372,2.5801329802,202.470841592
do_nothing,4.26830107487,5.26633829358,4.15897649402,-0.452047342439,-3.96110148904,1.00327818032,-4.85774689168,-0.0173451938809,-0.0156858099494,5.09611456485,0.152280242037,5.88850781246,6.56528309025,45.8525842408
do_nothing,5.29689944145,4.58571200567,4.41246533849,-0.103570655942,-0.901448565538,1.42532441221,-2.47131709859,1.72474721562,0.0119113176497,-1.9996583762,-1.09761224672,0.673139037246,2.45701274296,-208.407081611
do_nothing,1.5794484939,0.819945654447,0.295118714783,-0.163038921454,2.50036845403,0.642505158944,3.81163864207,4.40096845886,0.0314314671463,-5.73053924382,-0.825651272851,-4.94468377313,-3.41676995942,-268.511204672
do_nothing,-1.88580813165,-1.44419818696,-2.43516403587,-0.183497372513,3.1147939158,-0.961120393423,11.1852436691,7.78303397757,0.0326874199659,2.00335968922,1.17897273212,0.648868384924,-2.61372710895,-40.4676639966
do_nothing,-1.91228291698,-1.22515291425,-1.21146822944,0.322849513633,0.954326846344,-1.5172158623,10.9870084617,5.48790200817,0.0189826715841,10.0544937342,2.25246773448,9.0453590242,2.02924726781,236.742631926
do_nothing,-1.16944290219,-1.72603847785,-0.041447685234,0.717135943957,-1.04068124031,-0.267157266615,0.314393186343,-4.06386349442,-0.000364818772625,4.0772829599,0.74199505727,4.68109037992,1.47799321528,260.650906603
do_nothing,-2.41345331302,-3.95335481756,-1.85381534655,0.224761150227,-0.731327095996,1.08215201643,-11.2793827226,-11.3635182826,-0.0167945575944,-10.1660123977,-1.53345323971,-8.86530194333,-4.1697376113,20.1711721364
do_nothing,-3.21090299279,-4.16997500997,-3.09253703396,-0.530467048103,0.826669309784,0.771147868432,-11.9668538021,-7.11079043293,-0.0239768025274,-13.3903683753,-1.9723749979,-12.5426437618,-5.42351912726,-199.984719799
do_nothing,-0.225061831933,0.161400814255,0.0777545688136,-0.333905005194,1.11272297022,-0.459772242844,-2.20666682551,4.136950124,-0.0202221014143,-0.566047294867,-0.689816934077,-0.719194070734,1.12333153068,-170.731474402
do_nothing,4.26208430551,5.37488924421,4.42035297675,0.546535416769,-0.624127068318,-0.691048237133,6.35174653023,9.00036116251,-0.0102661100823,11.8772322401,0.371822492757,10.3436298129,6.80615845303,17.5663392455
do_nothing,4.89059770056,5.98589559358,3.91671659373,0.570361338277,-2.59502896725,0.169469995457,5.90375831579,2.85650463858,-9.48535519456e-05,9.58542555463,0.611121021101,7.26098103205,4.18581901843,108.915658252
do_nothing,1.1754696108,2.12882337013,-0.754658662304,-0.623192047829,-2.56575629919,0.503152016208,0.700363653649,-4.81587746646,0.00934871448286,-1.19051940565,0.913999085527,-1.97212043733,-1.8063839969,30.0737780279
do_nothing,-1.83052556968,-1.21793865894,-2.92985561484,-1.42095570332,-0.137446926191,-0.172290621502,-1.16762925329,-4.06908921741,0.0188403845974,-5.61604734887,1.23130042927,-3.13666399854,-2.39752381361,-46.8814649218
do_nothing,-1.23657310229,-1.69539192092,-0.0822320118055,-0.53510959153,2.87744505262,-0.443587635689,1.19571434648,2.82321473011,0.0234363690565,-1.62749543116,0.431375339044,2.02645915339,1.19530457552,7.41161263936
do_nothing,-0.188560326398,-2.04876086275,2.42401567757,1.08386229515,3.92760178383,0.417890113569,2.46929117439,6.04631065177,0.0157462291014,0.859555064631,-1.18978347121,1.44248605474,0.779532469677,85.7402659103
do_nothing,-2.06015058715,-4.27504545976,-0.296778806449,1.58066618607,1.84061391143,0.929940400296,-0.178033169604,1.50382565199,-0.00258036850115,-2.54570178601,-1.5700969261,-5.86559815307,-4.61401118092,33.3264428978
do_nothing,-4.45854246318,-5.28310542721,-5.04165682047,0.621592626255,-1.9015521717,-0.266359040045,-3.96488685384,-5.34453448202,-0.0193420574456,-5.05450508137,-0.0252297966226,-8.13785570561,-6.5588232288,-90.8242378007
do_nothing,-2.58452954081,-1.29809645309,-4.89283175348,-0.560809343782,-4.0653665335,-1.79876009508,-5.03208521577,-7.27795091693,-0.0241948665933,-0.943394232872,1.23416627995,-0.121596234204,-0.340645459398,-102.068554525
do_nothing,3.19935405487,5.60193877869,1.20722184977,-1.00559092578,-2.5862320877,-1.14564595381,-2.36954656664,-2.81250635925,-0.0176001358551,5.55133612961,0.253059179296,8.5695572989,7.41133243096,14.9624642869
do_nothing,7.02769566767,8.87164155766,7.06047186278,-0.795250174306,1.09437797095,1.50830725353,2.44048312234,3.87735749819,-0.00571938044734,7.02744035648,-1.51452755215,7.87799356031,7.87407064214,84.174796946
do_nothing,4.87839539073,5.18784247104,6.82408417687,-0.270644518598,3.19265691106,2.92722915754,6.2383526029,7.35861771335,0.00738521783138,2.74727525297,-1.19710864784,0.60033751589,1.53159247247,21.4910893561
do_nothing,-0.746972952729,-1.90224115504,1.08748554854,0.38531201493,1.64044850318,0.958128425541,5.39113669351,4.95738810094,0.0185915212397,-2.3722971144,1.20592251951,-4.13244828526,-4.08428589228,-43.4514197701
do_nothing,-4.48529283904,-6.42634486765,-4.83423761665,0.75653475037,-1.43759276248,-2.4247179078,-0.615176404679,-1.1437178233,0.0222957850217,-4.82241571614,2.73058237603,-3.75101250304,-4.77613804944,1.3674135904
do_nothing,-4.22635834798,-5.95522527299,-6.45591606489,0.415606410581,-2.16434147863,-3.39569859595,-6.47054712655,-5.35092670306,0.0146250825399,-4.50885689454,1.5221703265,-2.14723115666,-2.75406561003,64.1295335174
do_nothing,-2.01999227713,-2.40470297199,-3.41743546369,-0.249515040836,0.264887673625,-0.880202807186,-5.69564798569,-4.10858499143,-0.000450925231678,-2.09902528807,-1.03244152079,-1.21405276119,-0.953107292902,17.715278641
do_nothing,-0.333147956159,1.14150504128,1.1133374777,-0.322831284967,2.43455940768,2.37837084325,0.952345601929,-0.0153174589589,-0.0136903690538,1.5105140347,-2.58080388969,0.443275190374,0.545677023743,-75.0753254757
do_nothing,0.562699034759,2.88768681926,3.44849941826,0.247735079755,1.14375482265,3.17886946884,5.52550481507,1.57178877098,-0.0186254551246,3.93062189156,-2.35120733612,2.25447273017,2.02721701703,-66.2846182942
do_nothing,1.61851747256,2.69755445642,2.55187879746,0.435811274433,-2.08714914405,1.15896980178,3.17130149608,-0.129540421985,-0.0148619360898,3.01711595312,-0.782491493699,1.68114281915,2.32394436959,27.4715057155
do_nothing,2.94537669575,1.65195480167,0.638684406789,-0.25930388245,-2.7339997032,-1.45177753499,-1.63210931078,-0.587833808394,-0.00612711076969,0.0711596747552,1.52202052564,-0.491986411282,1.14527272809,58.1475068921
do_nothing,3.38546634714,1.05725739078,0.228333319573,-0.891804089416,0.515312779255,-2.41346881839,-2.32952723117,2.49469040876,0.00206024375393,-1.3092920655,3.26429980829,-0.349421454344,0.322816574826,-3.53837064259
do_nothing,1.77747917074,0.96602928497,0.97897696379,-0.457879653417,3.43713489222,-1.32542240575,0.0522115409917,4.68524085015,0.00666200621564,-0.0594208608835,2.51497275413,2.48413775257,0.801738209247,-32.7213677612
do_nothing,-1.56417119349,0.0157965280898,0.514854478162,0.53078170557,1.68470579016,0.462164844383,-0.214836119499,1.074000787,0.0121638041731,0.901609960353,-0.843327691057,3.05837546267,0.570231239607,22.7165107789
do_nothing,-4.56393255471,-2.4176538745,-1.8515915596,0.797085901308,-2.94329440088,1.23402629141,-3.18944994045,-5.4339546264,0.0234819779931,-0.964219511475,-3.69135308622,-1.60048499062,-2.10459666105,55.432472893
do_nothing,-4.84175903385,-4.45553173974,-3.79655404591,0.166911144647,-4.31192854038,0.535077125587,-2.58653621339,-6.70380284601,0.0274808022548,-3.75968121089,-2.76761750974,-6.87622260899,-4.84951517105,-5.30280670169
do_nothing,-1.86241972759,-3.4351961988,-2.85527991789,-0.347583384208,-0.0857531823856,-0.321696791826,3.66184981488,-0.239854962107,-0.00224155475947,-3.23000549709,1.04844804203,-5.71649580097,-3.462120568,-66.7743124539
do_nothing,2.38220200311,0.61675045179,0.594692489975,-0.173260470218,4.77216003121,0.152628080683,8.50936101525,6.78333826335,-0.058765737434,1.5150549268,3.4668326063,2.00048923523,2.0589649981,-33.6810718506
do_nothing,4.99684319097,4.46454170051,3.83734573142,0.151605586355,4.29979842797,1.38745521453,4.95277769671,6.26353298847,-0.0747300422095,5.97463016789,2.00072820804,8.46031690997,6.33836007425,31.3371802715
do_nothing,4.38723950011,4.96342343637,4.38840316866,0.0603161887912,-0.726601439416,1.12394248054,-4.1682442827,-0.937308103457,0.00700138638184,4.92162487309,-1.30246779187,6.66834918404,4.67376374419,23.7177401051
do_nothing,1.0391538206,2.01658630434,1.69646964125,-0.213833994259,-4.13790800266,-1.29783909399,-9.81660129801,-6.6067461913,0.12261820439,-1.27665459812,-2.86155640385,-1.62858288104,-1.21808477154,-23.4891169492
do_nothing,-3.01015917375,-1.89754733386,-2.47588364025,-0.244105325585,-2.66215143087,-3.23140368679,-7.62710159422,-5.22062220538,0.115584565267,-6.30288154055,-1.64316535455,-7.79856137509,-5.09541403079,-9.58908768454
do_nothing,-5.04204132226,-4.0550371692,-4.73422734278,-0.101757427968,0.460240407306,-1.87803864541,-0.879454359856,0.640905345728,-0.0601319140038,-4.75701566887,0.665838667805,-5.64276595137,-3.35621954386,48.1433695269
do_nothing,-3.15947659149,-3.09259546834,-2.60565391851,0.00827196829703,0.949442082653,1.5749586298,5.52311363822,4.77886231977,-0.216490317941,1.4624074586,2.14338853703,2.00499361253,1.22596658052,43.6438090647
do_nothing,1.57522120502,0.241100763056,2.28028617761,0.199503383784,-0.535564908147,3.14962085321,9.07013449098,4.40882896602,-0.126735930952,5.35429839059,2.00235879961,6.61274512868,3.27589743941,-29.2703554629
do_nothing,4.90620915785,3.04549834683,4.7654662712,0.485656841256,-0.317736381368,1.45168140766,8.08931460681,1.41864270438,0.151795471336,3.21319073798,0.465195180706,3.61241558123,1.07249343119,-61.4057542851
do_nothing,3.18496448871,2.34413431257,1.72299446494,0.424252379888,2.22840768141,-0.644687178505,1.63610421134,-1.42554200498,0.288356817414,-1.49827088252,-1.31723368417,-2.75864216331,-2.11720016904,-10.5315663141
do_nothing,-2.04232900047,-1.34646905417,-3.62818063769,-0.218697798281,3.70859820396,-0.617740529752,-7.06599191732,-3.12691675837,0.0903593679578,-3.45928780301,-1.78329248462,-5.18030144465,-2.4849917526,34.2372415907
do_nothing,-4.92297518567,-3.5799312045,-5.0229650006,-0.822542689611,1.65008301106,0.0438346881031,-11.0437208399,-3.52982078981,-0.215581071908,-1.97606456171,-0.651198633048,-2.04419239774,0.0400678729815,8.26673081384
do_nothing,-1.99771421231,-1.04080638751,-0.695757458569,-0.600159384641,-2.28503641546,-1.01086112641,-6.57519479059,-2.04349037762,-0.259610283376,0.0374186758614,0.396130592613,1.95187620159,2.48632812597,-27.3391174967
do_nothing,3.2825174714,3.61034090306,4.4811863948,0.261642319226,-4.71242178934,-2.39494556516,2.10136513798,1.22226428553,-0.016038496465,1.2226006663,-0.0464605133722,2.96577107692,2.60608742373,-3.34889293586
do_nothing,4.57474341151,4.45776242474,4.98780686464,0.794371223713,-4.1092042352,-1.02526077455,7.41419723546,3.96883500223,0.180168624991,2.2899586172,-0.8043803651,1.97991742374,0.723845214573,38.1573025284
do_nothing,0.536758288401,0.077238432539,0.865155632561,0.51159700041,-1.12732237582,2.17824753418,6.35021326528,3.35333846702,0.110524760037,2.4830990199,0.227997506711,0.987110836259,-1.55244763466,25.3567354594
do_nothing,-3.62018714809,-4.25617220201,-3.26029077028,-0.120038451207,2.73962364397,2.82801054215,1.86055213869,-0.312115185053,-0.0514956682331,-0.0201658543628,2.45853575965,-0.616406557766,-2.8671806818,-17.3281489205
do_nothing,-2.94441779326,-3.48030430799,-3.8723352993,-0.477516213937,5.42655283446,-0.0454183363253,-1.81743554784,-3.00738173154,-0.0482737656147,-3.63095877693,2.80469385975,-3.20465116503,-2.31298126262,-20.4001534484
do_nothing,1.09681601043,0.677958862199,-1.575637464,-0.450503305547,4.80741851438,-1.88396882366,-2.69983108306,-1.58970504207,0.0701136285674,-3.69320384715,0.0352387517897,-3.87190485106,0.19580918141,4.90406334688
do_nothing,2.98084582816,2.60939303006,0.877584213511,-0.202959306403,0.834151507637,0.355463301502,-1.17103020357,1.87198330992,0.0651762799538,0.701032164423,-3.15378974477,-0.30475662523,2.93156102902,-4.34550341967
do_nothing,0.444925051113,0.662663605516,1.75333666224,0.161290364698,-3.52821377491,2.83161768551,0.618953384853,2.37978836063,-0.0847968087195,4.13471687349,-3.55323863347,4.18232305504,3.16441294006,-36.0362405355
do_nothing,-2.89608503444,-1.37740239061,1.28336143376,0.454727741071,-5.06334746385,0.459712372322,0.00680243014543,-1.27038922054,-0.150428176407,2.18549083746,-1.27813952862,4.10143320338,0.322563283956,-16.2828926852
do_nothing,-2.525887249,-0.492493069585,0.599102317162,0.393793332237,-3.53178552211,-4.5564133816,-3.02369828353,-4.4441726322,-0.0237283868512,-1.9815761208,1.22717544876,-0.289409588487,-2.62291176299,49.8634362268
do_nothing,1.2608367775,1.46765232494,0.332813381162,0.016491432381,-0.933302503497,-5.07310235709,-4.47893932365,-2.76213961577,0.114503793012,-2.48511212412,2.53108980839,-3.21923022777,-2.51872587657,62.2695678517
do_nothing,3.98453794891,1.35596355422,0.0993714033805,-0.252194743013,1.49497498443,0.520357768303,-0.900735026396,1.86702727433,0.0857915041955,0.34508718589,2.68279071287,-1.90717545709,-0.0754633823958,-15.8083483879
do_nothing,2.5897512844,-0.365964273901,-0.648597167014,-0.20005406977,3.64124894938,5.60580152024,5.15963170586,4.04286693117,-0.0246901181404,1.28809954702,1.5240657058,0.187044572696,1.37831809372,-81.1999060561
do_nothing,-1.13546401908,-0.881296959535,-1.36511593516,-0.118092387698,4.55670358142,4.65705106414,7.49725614335,2.52229097931,-0.0387215594194,-0.651489994738,-0.972969785123,0.154580998234,0.767598269373,-35.3970083044
do_nothing,-3.13765017324,0.227595422899,-0.838948120418,-0.225724009607,2.73424773022,0.341451293473,4.12872458697,1.16460925161,0.0303266548111,-0.838734236805,-3.0388240335,0.29039626149,0.289078188225,66.9390138799
do_nothing,-1.98531303473,0.421934027624,0.717512353502,-0.229118932071,-1.20385618215,-1.8331073904,-0.928008226417,1.71693216445,0.0393692495854,2.20485759017,-2.39675431685,2.49687363462,1.08963764042,92.194308362
do_nothing,0.0167048774556,-1.5091321279,1.22530493383,0.152330941412,-4.26945961412,-1.7738047666,-4.2402370244,0.29001814196,-0.0300203536145,3.13559698884,0.324815023281,3.02508654638,0.978493094069,7.16550531882
do_nothing,0.41493273566,-3.07667477023,-0.381361091075,0.583139650801,-4.40598544088,-2.8001988576,-6.52212444967,-5.6125406672,-0.0672289632974,-1.44258731232,1.82698179336,-1.50863903367,-1.5531799713,-93.0659514604
do_nothing,-0.18461919887,-1.28454447493,-1.90334356971,0.525996849469,-2.32470233864,-4.02629414705,-7.60814399164,-10.0875320953,-0.0382401741312,-5.93288770811,0.685439127087,-6.25082521769,-3.60372452498,-112.502912795
do_nothing,0.4237926502,3.02051130895,-0.556671235439,0.0173102075248,0.493607574121,-1.14637963099,-3.51962714731,-4.88503081228,-0.0117647123753,-3.24574070531,-0.629113027016,-3.61607787447,-1.54479645921,-39.1091402974
do_nothing,2.23388582402,5.49828411456,2.5283890032,-0.444568884754,3.38905855801,5.04569514187,6.34434111105,7.75905726624,0.00395047968821,3.9173684144,0.234755222516,4.31686570471,2.8299870404,77.7852730023
do_nothing,2.6215537411,3.07626961701,3.12365236014,-0.575673052881,5.0580510129,7.27006487194,13.3209231017,14.7242482552,0.064291042446,6.17594362405,1.66802627824,6.99595462292,3.92301682154,159.463398137
do_nothing,0.220705078648,-2.39326452727,-0.139264266119,-0.401961266158,3.20690397056,1.723326965,8.35503673791,7.59892625016,0.122146270898,1.040961456,0.730463638997,0.690047596249,0.379963218745,121.429307753
do_nothing,-2.59882769994,-5.74125692163,-3.29299816407,0.0580062615354,-1.91725202338,-5.38289034061,-4.39545894819,-5.96007689171,0.0574006605915,-3.74244919434,-1.82490272215,-5.3653817041,-2.64150210611,-43.5915489825
do_nothing,-2.69532180308,-3.82680580343,-2.33592154846,0.614030660088,-5.66063265471,-5.63531052752,-10.8225962583,-11.4453465614,-0.0910817637676,-2.05168436163,-2.33053365584,-2.64693572946,-1.07812446993,-198.187638068
do_nothing,-0.533812401724,1.05174858889,1.07153949586,0.663894190982,-3.846361809,0.207213364404,-5.21258230774,-5.40734190694,-0.134286327746,1.96890604885,0.163841281222,3.73281890082,1.93001022585,-173.295920088
do_nothing,0.575832410652,3.68303256505,1.98792670361,-0.0859086449752,1.41063275287,3.82100335983,2.46678809833,2.05137409868,-0.0409024546369,1.21455720156,2.21503072022,3.16902420125,1.00093887338,16.8222834057
do_nothing,-0.510903475551,1.88293340479,-0.690502741279,-0.801728447565,4.05619393333,1.17578489824,1.68031300454,2.38258815242,0.000949879517597,-3.25174262875,1.00152701023,-3.78464397016,-2.96226216947,165.255244101
do_nothing,-0.996072272438,-1.14009071174,-2.69848244128,-0.396569538592,1.95532478656,-2.70600744566,-3.44390107227,-0.764696223751,-0.0561835101046,-4.21936672419,-1.578062572,-6.28195118094,-3.88012382752,130.407882373
do_nothing,1.47698425675,-1.10484163233,-0.513385910786,0.715377853249,-1.08269246863,-1.92159637244,-1.54203559988,0.665847288687,0.0182508544691,0.620483237058,-1.77555432266,0.0531803330616,0.399204091194,7.28461671187
do_nothing,4.63315326071,1.72316554779,3.6814633005,0.889022000122,-1.50305568378,2.14687106429,7.43939746721,6.01192536631,0.284283233693,5.57026892114,0.674164436925,6.7069926531,4.80803543402,-40.591985124
do_nothing,3.9858161252,2.97240500675,4.75698375023,-0.323627059058,-0.407435198879,3.79224753567,10.8431017468,6.783381249,0.340382770968,5.11625603764,2.44853981611,5.32748950849,4.18061749927,-21.5990486285
do_nothing,-1.15155978639,0.0912280365278,0.930156877842,-1.25528927632,-0.175988427801,1.1208059003,1.41619308981,-0.633209403489,-0.118711734225,0.399626630137,1.32330132833,-0.866210466028,-0.140405065132,-51.1676767375
do_nothing,-6.19850357468,-4.11957009876,-4.31029067048,-0.509337228323,-0.270614421157,-2.37149361832,-11.3773041442,-9.05542295468,-0.644314340243,-3.85460606902,-1.20646233095,-3.80838093971,-3.16330249546,-110.530229543
do_nothing,-6.27031597397,-4.86455897418,-6.03297237846,0.856545929282,0.737887298093,-3.15635163437,-12.809682244,-9.1732835212,-0.480261967904,-4.99657373126,-2.29924226965,-2.50310534898,-2.88825779207,-57.5889574048
do_nothing,-1.28770840227,-1.02636394566,-2.62038410763,0.897380664516,1.59788326681,-1.36098500611,-1.21247924782,-0.738952683596,0.318440177924,-3.08798376361,-1.15874517107,-1.4613112853,-1.15252518425,108.28094849
do_nothing,4.3244596559,3.76070582521,2.86320567183,-0.239805817258,0.384464710559,0.831206128649,10.4574297857,7.48968561766,0.796168529642,0.833943388246,0.678193798569,-1.33797899209,0.294183046066,183.01392999
do_nothing,6.05082396132,5.16799807617,5.41781305205,-0.656606278044,-1.51645223111,1.88405238666,10.1990327646,7.68665296629,0.358809354666,4.43716913471,1.47822646094,0.933551709463,1.27136529634,48.2811220859
do_nothing,3.02975894435,2.28733414676,2.83355371447,0.204539882224,-1.22280110085,1.46222254264,-0.0638381753481,0.853786591577,-0.400518614271,4.42747142702,0.92201348391,4.17392585566,1.51043550986,-129.761650764
do_nothing,-1.62813630242,-2.00520715439,-1.80613832757,0.751171827684,0.611757767353,0.112718376418,-8.06081028355,-5.11075717328,-0.555793659202,0.298000752173,-0.0577566396824,3.225247315,0.606267322838,-129.325246629
do_nothing,-3.71708662457,-3.92071622405,-3.24228903944,-0.0411977214782,0.602351414987,-0.917212438019,-5.57101078927,-4.23890405847,-0.108477889487,-3.6634008401,-0.487361233216,-1.86880233962,-0.419318277793,10.9553889915
do_nothing,-1.84674559169,-2.11140715416,-0.244718135455,-0.945560068024,-1.41745588731,-0.720432357869,2.77542109804,1.19172261338,0.194687267226,-3.10290939997,-0.337035123883,-4.28095081224,-0.125111644405,75.562615482
do_nothing,1.14325186608,1.18900739818,2.712958362,-0.564319570901,-1.52315712588,0.0828707152728,5.83865477736,3.79011995621,0.0620769356502,0.621702283359,-0.276191635372,-0.679223966208,0.721422522002,7.76889315256
do_nothing,1.39975874596,2.45464831527,1.26037362407,0.410094962355,1.80832453255,0.240638892077,0.0966531459313,0.45097161191,-0.0423295028279,2.47637104936,-0.464335276509,3.32479162614,0.129866616705,-36.8029703017
do_nothing,-1.19864810601,0.647121225139,-2.91634076407,0.497466964346,4.31276814935,-0.144445654855,-5.8045211797,-3.5581961615,0.173120034792,0.882041829888,-0.18135791001,2.00378319396,-1.39509631325,26.0599544519
do_nothing,-2.82327059953,-1.72711794177,-4.29600584013,-0.0779069341843,1.8334849984,0.00262133364369,-2.84648528998,-1.99977067931,0.314595501362,-0.891155827661,0.795897217906,-1.81675138794,-1.22279642704,74.0331352649
do_nothing,-0.791171129844,-1.78900665658,-0.953532483681,0.0166039965656,-3.28357052046,0.453682819122,5.31429110955,2.98572239613,0.022008102536,-0.651043608425,1.19414015397,-2.31239720763,0.64744027507,1.55633447878
do_nothing,2.76232150652,0.266989025309,3.19261721888,0.697831400936,-5.15767547341,-0.142507407628,6.87980494535,3.55528116733,-0.363073441798,-0.365799050995,-0.106304142169,-0.310462290067,0.825179219524,-91.5489042843
do_nothing,3.77702066993,1.8905253383,3.96751742526,0.50941360231,-2.08455826731,-1.38279916821,-1.13926391013,-1.87020518334,-0.318989732119,-1.5549460796,-1.79015462866,-0.468511625032,-1.63711143557,-62.6579637105
do_nothing,1.54583499633,1.66258712356,1.85426691497,-0.759850173314,2.17568469643,-0.893891067645,-8.02909538598,-5.22597834343,0.0384742522493,-1.59532761009,-1.2957543331,-1.73295274909,-2.38455852958,41.0601778948
do_nothing,-1.04233864764,0.527708769513,-0.139588932816,-1.40984038772,3.92899327205,1.68948184612,-4.58041402312,-0.523538452132,0.189951934625,1.84583122216,1.32464799795,1.08153620458,1.75853548265,66.1429463982
do_nothing,-1.91405498795,-0.324283960741,-1.05263445097,-0.414981349214,2.90785707868,2.99440547376,3.77620666041,6.25008534409,0.0474392603727,5.37777392562,2.69635230882,6.53071156266,6.32826582817,-0.344814444125
